Data from 135_MAYP1156461__1__18.txt Node

Date: Fri Sep 01 14:54:35 MSK 2023
User: mishev
Spectrometer: MAYP115646
Trigger mode: 0
Integration Time (sec): 5,000000E-2
Scans to average: 1
Electric dark correction enabled: true
Nonlinearity correction enabled: false
Boxcar width: 0
XAxis mode: Wavelengths
Number of Pixels in Spectrum: 2068
>>>>>Begin Spectral Data<<<<<
199,511	786,33
199,981	-138,67
200,452	25,33
200,923	-12,67
201,394	53,33
201,865	69,33
202,335	62,33
202,806	65,33
203,277	72,33
203,748	76,33
204,218	86,33
204,689	97,33
205,159	68,33
205,63	79,33
206,101	79,33
206,571	74,33
207,042	70,33
207,512	71,33
207,983	69,33
208,453	63,33
208,923	68,33
209,394	93,33
209,864	59,33
210,335	86,33
210,805	69,33
211,275	83,33
211,745	83,33
212,216	86,33
212,686	88,33
213,156	71,33
213,626	93,33
214,096	94,33
214,566	101,33
215,037	103,33
215,507	100,33
215,977	91,33
216,447	83,33
216,917	81,33
217,387	81,33
217,857	82,33
218,326	88,33
218,796	95,33
219,266	89,33
219,736	81,33
220,206	107,33
220,676	89,33
221,145	77,33
221,615	122,33
222,085	86,33
222,555	85,33
223,024	94,33
223,494	86,33
223,964	99,33
224,433	103,33
224,903	103,33
225,372	101,33
225,842	77,33
226,311	98,33
226,781	95,33
227,25	79,33
227,72	114,33
228,189	92,33
228,658	105,33
229,128	91,33
229,597	94,33
230,066	100,33
230,536	65,33
231,005	102,33
231,474	116,33
231,943	92,33
232,412	100,33
232,881	98,33
233,351	97,33
233,82	100,33
234,289	103,33
234,758	95,33
235,227	99,33
235,696	82,33
236,165	94,33
236,634	91,33
237,103	95,33
237,572	92,33
238,04	94,33
238,509	97,33
238,978	105,33
239,447	96,33
239,916	123,33
240,384	88,33
240,853	104,33
241,322	99,33
241,79	91,33
242,259	93,33
242,728	117,33
243,196	75,33
243,665	108,33
244,133	101,33
244,602	77,33
245,07	88,33
245,539	103,33
246,007	110,33
246,476	114,33
246,944	92,33
247,413	107,33
247,881	87,33
248,349	93,33
248,817	101,33
249,286	84,33
249,754	101,33
250,222	92,33
250,69	104,33
251,159	90,33
251,627	108,33
252,095	99,33
252,563	94,33
253,031	100,33
253,499	95,33
253,967	116,33
254,435	104,33
254,903	110,33
255,371	106,33
255,839	115,33
256,307	90,33
256,775	112,33
257,242	102,33
257,71	99,33
258,178	93,33
258,646	100,33
259,114	88,33
259,581	127,33
260,049	107,33
260,517	94,33
260,984	127,33
261,452	82,33
261,919	97,33
262,387	70,33
262,855	98,33
263,322	97,33
263,79	111,33
264,257	89,33
264,724	81,33
265,192	101,33
265,659	115,33
266,127	85,33
266,594	113,33
267,061	101,33
267,529	104,33
267,996	102,33
268,463	97,33
268,93	115,33
269,397	98,33
269,865	88,33
270,332	100,33
270,799	100,33
271,266	109,33
271,733	104,33
272,2	126,33
272,667	93,33
273,134	93,33
273,601	107,33
274,068	102,33
274,535	80,33
275,002	122,33
275,469	109,33
275,935	84,33
276,402	97,33
276,869	100,33
277,336	120,33
277,802	94,33
278,269	120,33
278,736	128,33
279,203	98,33
279,669	113,33
280,136	99,33
280,602	108,33
281,069	105,33
281,535	87,33
282,002	101,33
282,468	89,33
282,935	87,33
283,401	100,33
283,868	89,33
284,334	88,33
284,8	80,33
285,267	103,33
285,733	91,33
286,199	103,33
286,666	98,33
287,132	95,33
287,598	91,33
288,064	94,33
288,53	99,33
288,996	107,33
289,463	81,33
289,929	110,33
290,395	95,33
290,861	94,33
291,327	84,33
291,793	100,33
292,259	98,33
292,725	114,33
293,19	91,33
293,656	114,33
294,122	89,33
294,588	83,33
295,054	110,33
295,52	102,33
295,985	105,33
296,451	94,33
296,917	90,33
297,382	79,33
297,848	111,33
298,314	106,33
298,779	99,33
299,245	107,33
299,71	94,33
300,176	95,33
300,641	93,33
301,107	96,33
301,572	92,33
302,038	79,33
302,503	104,33
302,968	101,33
303,434	92,33
303,899	96,33
304,364	131,33
304,83	92,33
305,295	89,33
305,76	98,33
306,225	112,33
306,69	96,33
307,156	80,33
307,621	102,33
308,086	99,33
308,551	103,33
309,016	91,33
309,481	95,33
309,946	94,33
310,411	86,33
310,876	108,33
311,341	97,33
311,806	78,33
312,27	108,33
312,735	85,33
313,2	90,33
313,665	88,33
314,13	109,33
314,594	97,33
315,059	92,33
315,524	82,33
315,988	116,33
316,453	86,33
316,918	95,33
317,382	111,33
317,847	107,33
318,311	114,33
318,776	97,33
319,24	102,33
319,705	90,33
320,169	117,33
320,634	79,33
321,098	111,33
321,562	112,33
322,027	105,33
322,491	81,33
322,955	103,33
323,419	111,33
323,884	93,33
324,348	101,33
324,812	110,33
325,276	91,33
325,74	94,33
326,204	108,33
326,668	83,33
327,132	91,33
327,596	82,33
328,06	100,33
328,524	97,33
328,988	99,33
329,452	93,33
329,916	108,33
330,38	101,33
330,844	83,33
331,308	96,33
331,771	104,33
332,235	94,33
332,699	89,33
333,163	97,33
333,626	97,33
334,09	88,33
334,554	96,33
335,017	82,33
335,481	91,33
335,944	126,33
336,408	82,33
336,871	92,33
337,335	77,33
337,798	89,33
338,262	85,33
338,725	121,33
339,188	87,33
339,652	83,33
340,115	93,33
340,578	107,33
341,042	90,33
341,505	93,33
341,968	84,33
342,431	182,33
342,895	96,33
343,358	90,33
343,821	81,33
344,284	103,33
344,747	102,33
345,21	73,33
345,673	91,33
346,136	86,33
346,599	96,33
347,062	108,33
347,525	97,33
347,988	105,33
348,451	90,33
348,913	88,33
349,376	108,33
349,839	90,33
350,302	103,33
350,765	89,33
351,227	125,33
351,69	91,33
352,153	93,33
352,615	73,33
353,078	97,33
353,54	107,33
354,003	93,33
354,465	89,33
354,928	83,33
355,39	93,33
355,853	122,33
356,315	100,33
356,778	108,33
357,24	102,33
357,702	118,33
358,165	114,33
358,627	95,33
359,089	89,33
359,552	87,33
360,014	87,33
360,476	102,33
360,938	80,33
361,4	81,33
361,862	101,33
362,325	98,33
362,787	100,33
363,249	89,33
363,711	93,33
364,173	99,33
364,635	89,33
365,097	96,33
365,558	129,33
366,02	103,33
366,482	114,33
366,944	90,33
367,406	99,33
367,868	103,33
368,329	90,33
368,791	79,33
369,253	77,33
369,714	86,33
370,176	103,33
370,638	82,33
371,099	95,33
371,561	104,33
372,022	78,33
372,484	98,33
372,945	104,33
373,407	92,33
373,868	99,33
374,33	100,33
374,791	84,33
375,253	91,33
375,714	106,33
376,175	100,33
376,637	98,33
377,098	122,33
377,559	93,33
378,02	100,33
378,481	98,33
378,943	86,33
379,404	87,33
379,865	92,33
380,326	90,33
380,787	115,33
381,248	99,33
381,709	105,33
382,17	105,33
382,631	100,33
383,092	101,33
383,553	119,33
384,014	114,33
384,474	92,33
384,935	103,33
385,396	73,33
385,857	84,33
386,318	104,33
386,778	98,33
387,239	99,33
387,7	99,33
388,16	86,33
388,621	75,33
389,082	112,33
389,542	99,33
390,003	116,33
390,463	97,33
390,924	103,33
391,384	108,33
391,845	100,33
392,305	96,33
392,765	98,33
393,226	83,33
393,686	98,33
394,146	104,33
394,607	106,33
395,067	90,33
395,527	97,33
395,987	89,33
396,447	105,33
396,908	84,33
397,368	111,33
397,828	82,33
398,288	95,33
398,748	104,33
399,208	114,33
399,668	89,33
400,128	103,33
400,588	119,33
401,048	127,33
401,508	113,33
401,968	96,33
402,427	98,33
402,887	98,33
403,347	119,33
403,807	103,33
404,266	113,33
404,726	139,33
405,186	121,33
405,645	130,33
406,105	131,33
406,565	122,33
407,024	122,33
407,484	135,33
407,943	148,33
408,403	140,33
408,862	144,33
409,322	151,33
409,781	179,33
410,241	170,33
410,7	195,33
411,159	194,33
411,619	193,33
412,078	208,33
412,537	220,33
412,996	268,33
413,456	246,33
413,915	241,33
414,374	253,33
414,833	292,33
415,292	302,33
415,751	324,33
416,21	388,33
416,669	367,33
417,128	382,33
417,587	416,33
418,046	450,33
418,505	477,33
418,964	527,33
419,423	553,33
419,882	593,33
420,341	670,33
420,799	653,33
421,258	719,33
421,717	756,33
422,176	805,33
422,634	882,33
423,093	901,33
423,552	955,33
424,01	1062,33
424,469	1098,33
424,927	1163,33
425,386	1236,33
425,844	1348,33
426,303	1415,33
426,761	1495,33
427,22	1659,33
427,678	1705,33
428,137	1759,33
428,595	1849,33
429,053	1960,33
429,512	2143,33
429,97	2197,33
430,428	2283,33
430,886	2495,33
431,344	2560,33
431,803	2712,33
432,261	2829,33
432,719	2944,33
433,177	3061,33
433,635	3252,33
434,093	3437,33
434,551	3516,33
435,009	3786,33
435,467	3876,33
435,925	4099,33
436,383	4225,33
436,841	4516,33
437,299	4700,33
437,756	5033,33
438,214	5235,33
438,672	5441,33
439,13	5895,33
439,587	6096,33
440,045	6378,33
440,503	6675,33
440,96	6897,33
441,418	7237,33
441,876	7473,33
442,333	7765,33
442,791	8013,33
443,248	8233,33
443,706	8385,33
444,163	8521,33
444,621	8714,33
445,078	8656,33
445,535	8730,33
445,993	8682,33
446,45	8734,33
446,907	8475,33
447,365	8193,33
447,822	8027,33
448,279	7714,33
448,736	7374,33
449,193	7074,33
449,651	6773,33
450,108	6344,33
450,565	6034,33
451,022	5669,33
451,479	5272,33
451,936	5015,33
452,393	4687,33
452,85	4370,33
453,307	4070,33
453,764	3824,33
454,221	3612,33
454,677	3439,33
455,134	3286,33
455,591	3078,33
456,048	3017,33
456,505	2896,33
456,961	2755,33
457,418	2632,33
457,875	2535,33
458,331	2490,33
458,788	2420,33
459,244	2260,33
459,701	2263,33
460,158	2187,33
460,614	2143,33
461,071	2078,33
461,527	2055,33
461,983	1951,33
462,44	1886,33
462,896	1802,33
463,353	1740,33
463,809	1695,33
464,265	1577,33
464,721	1540,33
465,178	1519,33
465,634	1413,33
466,09	1359,33
466,546	1303,33
467,002	1261,33
467,458	1234,33
467,915	1141,33
468,371	1092,33
468,827	1055,33
469,283	989,33
469,739	958,33
470,195	949,33
470,651	889,33
471,106	905,33
471,562	845,33
472,018	844,33
472,474	787,33
472,93	791,33
473,386	797,33
473,841	806,33
474,297	750,33
474,753	757,33
475,208	759,33
475,664	726,33
476,12	700,33
476,575	696,33
477,031	693,33
477,486	718,33
477,942	693,33
478,397	664,33
478,853	711,33
479,308	678,33
479,763	666,33
480,219	655,33
480,674	655,33
481,13	685,33
481,585	627,33
482,04	669,33
482,495	629,33
482,951	669,33
483,406	612,33
483,861	635,33
484,316	642,33
484,771	607,33
485,226	680,33
485,681	658,33
486,136	645,33
486,591	655,33
487,046	683,33
487,501	667,33
487,956	699,33
488,411	735,33
488,866	707,33
489,321	742,33
489,775	745,33
490,23	761,33
490,685	795,33
491,14	810,33
491,594	791,33
492,049	807,33
492,504	848,33
492,958	863,33
493,413	922,33
493,868	957,33
494,322	959,33
494,777	987,33
495,231	1013,33
495,686	1040,33
496,14	1062,33
496,594	1082,33
497,049	1132,33
497,503	1176,33
497,958	1190,33
498,412	1271,33
498,866	1251,33
499,32	1310,33
499,775	1361,33
500,229	1387,33
500,683	1391,33
501,137	1435,33
501,591	1485,33
502,045	1496,33
502,499	1561,33
502,953	1608,33
503,407	1611,33
503,861	1704,33
504,315	1690,33
504,769	1754,33
505,223	1806,33
505,677	1812,33
506,131	1866,33
506,585	1938,33
507,039	1990,33
507,492	2022,33
507,946	2102,33
508,4	2073,33
508,854	2184,33
509,307	2181,33
509,761	2241,33
510,214	2283,33
510,668	2263,33
511,122	2401,33
511,575	2387,33
512,029	2442,33
512,482	2460,33
512,936	2479,33
513,389	2571,33
513,842	2593,33
514,296	2593,33
514,749	2674,33
515,202	2705,33
515,656	2787,33
516,109	2724,33
516,562	2818,33
517,015	2876,33
517,469	2904,33
517,922	2904,33
518,375	2968,33
518,828	3047,33
519,281	3075,33
519,734	3058,33
520,187	3066,33
520,64	3114,33
521,093	3123,33
521,546	3155,33
521,999	3223,33
522,452	3246,33
522,905	3279,33
523,358	3311,33
523,81	3315,33
524,263	3365,33
524,716	3371,33
525,169	3381,33
525,621	3455,33
526,074	3425,33
526,527	3553,33
526,979	3479,33
527,432	3562,33
527,884	3554,33
528,337	3536,33
528,789	3574,33
529,242	3653,33
529,694	3606,33
530,147	3655,33
530,599	3667,33
531,052	3717,33
531,504	3705,33
531,956	3773,33
532,409	3778,33
532,861	3786,33
533,313	3800,33
533,765	3872,33
534,218	3875,33
534,67	3869,33
535,122	3866,33
535,574	3959,33
536,026	3962,33
536,478	3962,33
536,93	3939,33
537,382	4013,33
537,834	4032,33
538,286	4036,33
538,738	4040,33
539,19	4126,33
539,642	4066,33
540,094	4170,33
540,545	4231,33
540,997	4187,33
541,449	4267,33
541,901	4198,33
542,352	4325,33
542,804	4245,33
543,256	4310,33
543,707	4350,33
544,159	4389,33
544,611	4389,33
545,062	4403,33
545,514	4472,33
545,965	4485,33
546,417	4571,33
546,868	4535,33
547,319	4630,33
547,771	4661,33
548,222	4628,33
548,674	4699,33
549,125	4843,33
549,576	4884,33
550,027	4948,33
550,479	4941,33
550,93	5012,33
551,381	5091,33
551,832	5137,33
552,283	5220,33
552,734	5309,33
553,185	5395,33
553,636	5409,33
554,087	5443,33
554,538	5606,33
554,989	5703,33
555,44	5722,33
555,891	5815,33
556,342	5903,33
556,793	6007,33
557,244	6178,33
557,694	6304,33
558,145	6370,33
558,596	6655,33
559,047	6603,33
559,497	6827,33
559,948	7057,33
560,399	7195,33
560,849	7313,33
561,3	7546,33
561,75	7760,33
562,201	7892,33
562,651	8116,33
563,102	8337,33
563,552	8624,33
564,003	8873,33
564,453	9072,33
564,903	9281,33
565,354	9405,33
565,804	9780,33
566,254	10186,33
566,705	10388,33
567,155	10551,33
567,605	10853,33
568,055	11156,33
568,505	11615,33
568,955	11739,33
569,405	11961,33
569,856	12290,33
570,306	12649,33
570,756	12831,33
571,206	13121,33
571,656	13344,33
572,105	13681,33
572,555	13956,33
573,005	14019,33
573,455	14296,33
573,905	14445,33
574,355	14732,33
574,804	14823,33
575,254	14994,33
575,704	15150,33
576,154	15228,33
576,603	15482,33
577,053	15680,33
577,502	15631,33
577,952	15711,33
578,402	15944,33
578,851	16165,33
579,301	15947,33
579,75	16252,33
580,199	16239,33
580,649	16345,33
581,098	16337,33
581,548	16435,33
581,997	16442,33
582,446	16431,33
582,895	16396,33
583,345	16555,33
583,794	16402,33
584,243	16334,33
584,692	16462,33
585,141	16370,33
585,591	16265,33
586,04	16299,33
586,489	16248,33
586,938	16088,33
587,387	16136,33
587,836	15811,33
588,285	15868,33
588,734	15708,33
589,182	15501,33
589,631	15657,33
590,08	15267,33
590,529	15241,33
590,978	15175,33
591,426	14952,33
591,875	14799,33
592,324	14695,33
592,773	14376,33
593,221	14267,33
593,67	14074,33
594,118	13843,33
594,567	13589,33
595,016	13554,33
595,464	13299,33
595,913	13041,33
596,361	13144,33
596,809	12668,33
597,258	12569,33
597,706	12296,33
598,155	12137,33
598,603	11868,33
599,051	11699,33
599,499	11479,33
599,948	11294,33
600,396	11059,33
600,844	10915,33
601,292	10723,33
601,74	10463,33
602,188	10289,33
602,636	10156,33
603,085	9805,33
603,533	9605,33
603,981	9448,33
604,429	9217,33
604,876	9225,33
605,324	9030,33
605,772	8834,33
606,22	8609,33
606,668	8369,33
607,116	8393,33
607,563	8230,33
608,011	7917,33
608,459	7844,33
608,907	7661,33
609,354	7542,33
609,802	7360,33
610,25	7268,33
610,697	7084,33
611,145	6993,33
611,592	6933,33
612,04	6813,33
612,487	6656,33
612,935	6559,33
613,382	6444,33
613,829	6276,33
614,277	6224,33
614,724	6103,33
615,171	5913,33
615,619	5813,33
616,066	5691,33
616,513	5690,33
616,96	5560,33
617,408	5471,33
617,855	5352,33
618,302	5301,33
618,749	5137,33
619,196	5114,33
619,643	5004,33
620,09	4811,33
620,537	4858,33
620,984	4696,33
621,431	4707,33
621,878	4615,33
622,325	4523,33
622,771	4443,33
623,218	4353,33
623,665	4333,33
624,112	4267,33
624,559	4186,33
625,005	4117,33
625,452	3989,33
625,899	3983,33
626,345	3958,33
626,792	3804,33
627,238	3792,33
627,685	3717,33
628,131	3650,33
628,578	3620,33
629,024	3543,33
629,471	3451,33
629,917	3396,33
630,364	3409,33
630,81	3336,33
631,256	3357,33
631,703	3215,33
632,149	3195,33
632,595	3163,33
633,041	3133,33
633,487	3043,33
633,934	3000,33
634,38	2992,33
634,826	2916,33
635,272	2910,33
635,718	2836,33
636,164	2792,33
636,61	2781,33
637,056	2676,33
637,502	2717,33
637,948	2647,33
638,394	2597,33
638,839	2524,33
639,285	2519,33
639,731	2455,33
640,177	2443,33
640,623	2417,33
641,068	2428,33
641,514	2324,33
641,96	2318,33
642,405	2250,33
642,851	2281,33
643,296	2243,33
643,742	2194,33
644,187	2155,33
644,633	2186,33
645,078	2141,33
645,524	2080,33
645,969	2079,33
646,415	2040,33
646,86	1984,33
647,305	1990,33
647,751	1977,33
648,196	1897,33
648,641	1912,33
649,086	1904,33
649,532	1846,33
649,977	1843,33
650,422	1853,33
650,867	1800,33
651,312	1732,33
651,757	1773,33
652,202	1743,33
652,647	1647,33
653,092	1731,33
653,537	1629,33
653,982	1657,33
654,427	1591,33
654,872	1614,33
655,316	1590,33
655,761	1595,33
656,206	1494,33
656,651	1498,33
657,096	1499,33
657,54	1447,33
657,985	1471,33
658,43	1447,33
658,874	1409,33
659,319	1422,33
659,763	1388,33
660,208	1377,33
660,652	1391,33
661,097	1304,33
661,541	1306,33
661,986	1301,33
662,43	1309,33
662,874	1277,33
663,319	1254,33
663,763	1227,33
664,207	1252,33
664,651	1189,33
665,096	1181,33
665,54	1191,33
665,984	1188,33
666,428	1145,33
666,872	1159,33
667,316	1126,33
667,76	1110,33
668,204	1080,33
668,648	1060,33
669,092	1117,33
669,536	1086,33
669,98	1012,33
670,424	1038,33
670,868	1043,33
671,312	1022,33
671,756	1057,33
672,199	1009,33
672,643	983,33
673,087	968,33
673,531	977,33
673,974	929,33
674,418	948,33
674,862	978,33
675,305	913,33
675,749	911,33
676,192	895,33
676,636	866,33
677,079	876,33
677,523	887,33
677,966	864,33
678,409	851,33
678,853	857,33
679,296	805,33
679,739	795,33
680,183	804,33
680,626	745,33
681,069	790,33
681,512	783,33
681,955	763,33
682,399	753,33
682,842	788,33
683,285	757,33
683,728	768,33
684,171	749,33
684,614	737,33
685,057	699,33
685,5	693,33
685,943	659,33
686,386	687,33
686,828	683,33
687,271	689,33
687,714	661,33
688,157	658,33
688,6	644,33
689,042	659,33
689,485	619,33
689,928	629,33
690,37	641,33
690,813	621,33
691,255	626,33
691,698	631,33
692,141	614,33
692,583	565,33
693,025	604,33
693,468	564,33
693,91	558,33
694,353	569,33
694,795	570,33
695,237	527,33
695,68	540,33
696,122	577,33
696,564	526,33
697,006	519,33
697,449	530,33
697,891	501,33
698,333	550,33
698,775	496,33
699,217	483,33
699,659	509,33
700,101	482,33
700,543	495,33
700,985	484,33
701,427	478,33
701,869	479,33
702,311	482,33
702,753	481,33
703,195	481,33
703,636	422,33
704,078	430,33
704,52	447,33
704,962	440,33
705,403	437,33
705,845	418,33
706,286	430,33
706,728	418,33
707,17	430,33
707,611	399,33
708,053	407,33
708,494	413,33
708,936	418,33
709,377	399,33
709,819	404,33
710,26	382,33
710,701	385,33
711,143	419,33
711,584	371,33
712,025	423,33
712,466	385,33
712,908	361,33
713,349	351,33
713,79	388,33
714,231	359,33
714,672	355,33
715,113	351,33
715,554	332,33
715,995	324,33
716,436	342,33
716,877	341,33
717,318	352,33
717,759	318,33
718,2	314,33
718,641	307,33
719,082	323,33
719,522	318,33
719,963	304,33
720,404	321,33
720,844	309,33
721,285	288,33
721,726	273,33
722,166	283,33
722,607	292,33
723,048	312,33
723,488	285,33
723,929	298,33
724,369	286,33
724,81	294,33
725,25	265,33
725,69	269,33
726,131	267,33
726,571	271,33
727,011	271,33
727,452	272,33
727,892	268,33
728,332	246,33
728,772	259,33
729,212	272,33
729,653	271,33
730,093	277,33
730,533	259,33
730,973	252,33
731,413	277,33
731,853	255,33
732,293	247,33
732,733	259,33
733,173	255,33
733,613	251,33
734,052	249,33
734,492	244,33
734,932	229,33
735,372	238,33
735,812	215,33
736,251	231,33
736,691	242,33
737,131	273,33
737,57	240,33
738,01	221,33
738,449	232,33
738,889	216,33
739,329	213,33
739,768	208,33
740,208	234,33
740,647	202,33
741,086	224,33
741,526	197,33
741,965	214,33
742,404	241,33
742,844	222,33
743,283	196,33
743,722	209,33
744,161	211,33
744,601	231,33
745,04	207,33
745,479	213,33
745,918	192,33
746,357	193,33
746,796	215,33
747,235	203,33
747,674	223,33
748,113	195,33
748,552	190,33
748,991	180,33
749,43	185,33
749,869	196,33
750,307	194,33
750,746	190,33
751,185	192,33
751,624	204,33
752,062	197,33
752,501	207,33
752,94	183,33
753,378	190,33
753,817	199,33
754,255	196,33
754,694	178,33
755,132	170,33
755,571	178,33
756,009	177,33
756,448	191,33
756,886	195,33
757,325	169,33
757,763	174,33
758,201	172,33
758,639	160,33
759,078	163,33
759,516	179,33
759,954	176,33
760,392	175,33
760,83	157,33
761,268	150,33
761,707	190,33
762,145	165,33
762,583	185,33
763,021	157,33
763,459	155,33
763,896	158,33
764,334	175,33
764,772	156,33
765,21	156,33
765,648	161,33
766,086	163,33
766,524	166,33
766,961	157,33
767,399	176,33
767,837	165,33
768,274	171,33
768,712	173,33
769,149	173,33
769,587	148,33
770,025	127,33
770,462	159,33
770,9	154,33
771,337	160,33
771,774	133,33
772,212	176,33
772,649	139,33
773,087	148,33
773,524	142,33
773,961	145,33
774,398	157,33
774,836	166,33
775,273	149,33
775,71	145,33
776,147	154,33
776,584	155,33
777,021	144,33
777,458	145,33
777,895	158,33
778,332	133,33
778,769	141,33
779,206	147,33
779,643	137,33
780,08	157,33
780,517	152,33
780,954	139,33
781,391	148,33
781,827	137,33
782,264	156,33
782,701	134,33
783,137	154,33
783,574	140,33
784,011	137,33
784,447	140,33
784,884	137,33
785,32	137,33
785,757	129,33
786,193	149,33
786,63	127,33
787,066	131,33
787,503	137,33
787,939	155,33
788,375	138,33
788,812	122,33
789,248	120,33
789,684	149,33
790,12	149,33
790,557	141,33
790,993	155,33
791,429	140,33
791,865	122,33
792,301	126,33
792,737	136,33
793,173	123,33
793,609	127,33
794,045	121,33
794,481	143,33
794,917	132,33
795,353	120,33
795,789	127,33
796,225	139,33
796,66	119,33
797,096	123,33
797,532	127,33
797,968	131,33
798,403	136,33
798,839	135,33
799,275	129,33
799,71	146,33
800,146	119,33
800,581	132,33
801,017	119,33
801,452	126,33
801,888	137,33
802,323	149,33
802,759	119,33
803,194	122,33
803,629	126,33
804,065	125,33
804,5	120,33
804,935	125,33
805,37	127,33
805,806	124,33
806,241	123,33
806,676	146,33
807,111	111,33
807,546	108,33
807,981	121,33
808,416	120,33
808,851	128,33
809,286	123,33
809,721	118,33
810,156	119,33
810,591	128,33
811,026	130,33
811,46	140,33
811,895	116,33
812,33	87,33
812,765	103,33
813,199	100,33
813,634	128,33
814,069	120,33
814,503	116,33
814,938	175,33
815,373	139,33
815,807	107,33
816,242	141,33
816,676	114,33
817,111	116,33
817,545	121,33
817,979	115,33
818,414	115,33
818,848	124,33
819,282	137,33
819,717	103,33
820,151	121,33
820,585	97,33
821,019	143,33
821,453	108,33
821,888	120,33
822,322	125,33
822,756	141,33
823,19	116,33
823,624	103,33
824,058	119,33
824,492	127,33
824,926	105,33
825,36	98,33
825,794	125,33
826,227	118,33
826,661	105,33
827,095	123,33
827,529	132,33
827,962	141,33
828,396	100,33
828,83	117,33
829,263	109,33
829,697	121,33
830,131	112,33
830,564	115,33
830,998	107,33
831,431	123,33
831,865	110,33
832,298	101,33
832,732	123,33
833,165	123,33
833,598	128,33
834,032	112,33
834,465	109,33
834,898	125,33
835,331	125,33
835,765	107,33
836,198	105,33
836,631	118,33
837,064	107,33
837,497	134,33
837,93	124,33
838,363	100,33
838,796	118,33
839,229	99,33
839,662	131,33
840,095	111,33
840,528	121,33
840,961	111,33
841,394	108,33
841,827	117,33
842,259	109,33
842,692	97,33
843,125	120,33
843,558	119,33
843,99	115,33
844,423	88,33
844,855	113,33
845,288	127,33
845,721	137,33
846,153	89,33
846,586	102,33
847,018	117,33
847,45	122,33
847,883	105,33
848,315	114,33
848,748	106,33
849,18	103,33
849,612	96,33
850,044	115,33
850,477	148,33
850,909	129,33
851,341	90,33
851,773	103,33
852,205	109,33
852,637	126,33
853,069	86,33
853,501	105,33
853,933	110,33
854,365	92,33
854,797	144,33
855,229	94,33
855,661	107,33
856,093	107,33
856,525	103,33
856,957	113,33
857,388	115,33
857,82	111,33
858,252	119,33
858,683	114,33
859,115	116,33
859,547	90,33
859,978	100,33
860,41	91,33
860,841	124,33
861,273	118,33
861,704	105,33
862,136	93,33
862,567	95,33
862,999	117,33
863,43	125,33
863,861	121,33
864,293	94,33
864,724	156,33
865,155	97,33
865,586	88,33
866,017	100,33
866,449	97,33
866,88	110,33
867,311	111,33
867,742	114,33
868,173	86,33
868,604	108,33
869,035	134,33
869,466	101,33
869,897	113,33
870,328	109,33
870,759	95,33
871,189	99,33
871,62	105,33
872,051	86,33
872,482	111,33
872,912	105,33
873,343	105,33
873,774	107,33
874,204	86,33
874,635	126,33
875,066	86,33
875,496	94,33
875,927	92,33
876,357	97,33
876,788	104,33
877,218	109,33
877,648	107,33
878,079	102,33
878,509	95,33
878,939	114,33
879,37	97,33
879,8	102,33
880,23	100,33
880,66	118,33
881,091	117,33
881,521	109,33
881,951	115,33
882,381	112,33
882,811	102,33
883,241	103,33
883,671	72,33
884,101	75,33
884,531	116,33
884,961	110,33
885,391	91,33
885,82	104,33
886,25	83,33
886,68	106,33
887,11	92,33
887,539	90,33
887,969	101,33
888,399	99,33
888,828	103,33
889,258	104,33
889,688	118,33
890,117	87,33
890,547	101,33
890,976	120,33
891,406	99,33
891,835	106,33
892,264	106,33
892,694	90,33
893,123	114,33
893,553	112,33
893,982	97,33
894,411	103,33
894,84	119,33
895,269	98,33
895,699	82,33
896,128	99,33
896,557	110,33
896,986	106,33
897,415	102,33
897,844	104,33
898,273	99,33
898,702	107,33
899,131	126,33
899,56	81,33
899,989	103,33
900,418	103,33
900,846	95,33
901,275	104,33
901,704	116,33
902,133	113,33
902,561	115,33
902,99	111,33
903,419	99,33
903,847	89,33
904,276	107,33
904,704	87,33
905,133	113,33
905,561	91,33
905,99	110,33
906,418	94,33
906,847	131,33
907,275	108,33
907,704	111,33
908,132	124,33
908,56	113,33
908,988	91,33
909,417	98,33
909,845	94,33
910,273	86,33
910,701	109,33
911,129	90,33
911,557	119,33
911,985	104,33
912,413	95,33
912,841	82,33
913,269	100,33
913,697	84,33
914,125	106,33
914,553	107,33
914,981	98,33
915,409	87,33
915,837	104,33
916,264	109,33
916,692	95,33
917,12	95,33
917,547	93,33
917,975	106,33
918,403	92,33
918,83	92,33
919,258	93,33
919,685	116,33
920,113	103,33
920,54	110,33
920,968	101,33
921,395	97,33
921,823	119,33
922,25	109,33
922,677	103,33
923,104	72,33
923,532	100,33
923,959	116,33
924,386	108,33
924,813	107,33
925,24	112,33
925,668	85,33
926,095	110,33
926,522	101,33
926,949	99,33
927,376	101,33
927,803	99,33
928,23	113,33
928,657	102,33
929,083	99,33
929,51	98,33
929,937	99,33
930,364	94,33
930,791	80,33
931,217	127,33
931,644	130,33
932,071	91,33
932,497	99,33
932,924	86,33
933,351	104,33
933,777	132,33
934,204	113,33
934,63	104,33
935,057	75,33
935,483	111,33
935,909	100,33
936,336	97,33
936,762	105,33
937,188	89,33
937,615	89,33
938,041	116,33
938,467	93,33
938,893	103,33
939,32	133,33
939,746	109,33
940,172	119,33
940,598	116,33
941,024	110,33
941,45	98,33
941,876	99,33
942,302	78,33
942,728	113,33
943,154	99,33
943,58	91,33
944,005	93,33
944,431	93,33
944,857	109,33
945,283	91,33
945,709	127,33
946,134	79,33
946,56	97,33
946,986	106,33
947,411	100,33
947,837	100,33
948,262	108,33
948,688	108,33
949,113	95,33
949,539	82,33
949,964	88,33
950,39	109,33
950,815	107,33
951,24	112,33
951,666	91,33
952,091	104,33
952,516	95,33
952,941	100,33
953,367	116,33
953,792	102,33
954,217	94,33
954,642	102,33
955,067	90,33
955,492	108,33
955,917	88,33
956,342	87,33
956,767	108,33
957,192	112,33
957,617	86,33
958,042	108,33
958,466	107,33
958,891	103,33
959,316	101,33
959,741	103,33
960,166	84,33
960,59	79,33
961,015	94,33
961,439	104,33
961,864	105,33
962,289	96,33
962,713	101,33
963,138	119,33
963,562	135,33
963,987	100,33
964,411	110,33
964,835	97,33
965,26	105,33
965,684	84,33
966,108	76,33
966,533	98,33
966,957	89,33
967,381	89,33
967,805	100,33
968,229	98,33
968,654	105,33
969,078	81,33
969,502	113,33
969,926	87,33
970,35	99,33
970,774	91,33
971,198	88,33
971,622	116,33
972,045	89,33
972,469	115,33
972,893	98,33
973,317	92,33
973,741	108,33
974,164	103,33
974,588	110,33
975,012	104,33
975,435	88,33
975,859	113,33
976,283	92,33
976,706	114,33
977,13	105,33
977,553	106,33
977,977	102,33
978,4	101,33
978,824	117,33
979,247	90,33
979,67	92,33
980,094	129,33
980,517	93,33
980,94	114,33
981,363	104,33
981,786	100,33
982,21	89,33
982,633	119,33
983,056	108,33
983,479	99,33
983,902	91,33
984,325	100,33
984,748	106,33
985,171	105,33
985,594	95,33
986,017	95,33
986,44	93,33
986,863	98,33
987,285	88,33
987,708	111,33
988,131	87,33
988,554	84,33
988,976	101,33
989,399	115,33
989,822	131,33
990,244	110,33
990,667	100,33
991,089	120,33
991,512	105,33
991,934	108,33
992,357	128,33
992,779	94,33
993,201	109,33
993,624	94,33
994,046	100,33
994,468	111,33
994,891	120,33
995,313	100,33
995,735	105,33
996,157	94,33
996,579	111,33
997,002	108,33
997,424	125,33
997,846	83,33
998,268	95,33
998,69	101,33
999,112	86,33
999,534	97,33
999,956	108,33
1000,377	92,33
1000,799	104,33
1001,221	121,33
1001,643	100,33
1002,065	99,33
1002,486	107,33
1002,908	109,33
1003,33	105,33
1003,751	100,33
1004,173	98,33
1004,595	105,33
1005,016	108,33
1005,438	98,33
1005,859	105,33
1006,281	84,33
1006,702	104,33
1007,123	97,33
1007,545	97,33
1007,966	110,33
1008,387	114,33
1008,809	99,33
1009,23	109,33
1009,651	101,33
1010,072	102,33
1010,494	93,33
1010,915	93,33
1011,336	105,33
1011,757	95,33
1012,178	100,33
1012,599	103,33
1013,02	112,33
1013,441	103,33
1013,862	90,33
1014,283	81,33
1014,703	97,33
1015,124	89,33
1015,545	104,33
1015,966	106,33
1016,387	111,33
1016,807	109,33
1017,228	95,33
1017,649	89,33
1018,069	108,33
1018,49	108,33
1018,91	124,33
1019,331	117,33
1019,751	96,33
1020,172	93,33
1020,592	87,33
1021,013	97,33
1021,433	106,33
1021,853	97,33
1022,274	102,33
1022,694	99,33
1023,114	120,33
1023,535	93,33
1023,955	106,33
1024,375	88,33
1024,795	87,33
1025,215	102,33
1025,635	100,33
1026,055	112,33
1026,475	103,33
1026,895	104,33
1027,315	131,33
1027,735	126,33
1028,155	91,33
1028,575	112,33
1028,995	90,33
1029,414	87,33
1029,834	117,33
1030,254	107,33
1030,674	98,33
1031,093	99,33
1031,513	135,33
1031,933	108,33
1032,352	87,33
1032,772	84,33
1033,191	131,33
1033,611	99,33
1034,03	108,33
1034,45	111,33
1034,869	114,33
1035,289	99,33
1035,708	118,33
1036,127	98,33
1036,546	100,33
1036,966	123,33
1037,385	97,33
1037,804	101,33
1038,223	115,33
1038,642	114,33
1039,062	122,33
1039,481	89,33
1039,9	115,33
1040,319	91,33
1040,738	104,33
1041,157	91,33
1041,576	106,33
1041,994	104,33
1042,413	105,33
1042,832	109,33
1043,251	121,33
1043,67	108,33
1044,088	95,33
1044,507	101,33
1044,926	93,33
1045,345	122,33
1045,763	115,33
1046,182	87,33
1046,6	102,33
1047,019	105,33
1047,437	104,33
1047,856	99,33
1048,274	101,33
1048,693	91,33
1049,111	114,33
1049,529	107,33
1049,948	121,33
1050,366	107,33
1050,784	89,33
1051,202	102,33
1051,621	105,33
1052,039	121,33
1052,457	99,33
1052,875	81,33
1053,293	105,33
1053,711	99,33
1054,129	105,33
1054,547	100,33
1054,965	88,33
1055,383	108,33
1055,801	102,33
1056,219	85,33
1056,637	117,33
1057,054	93,33
1057,472	91,33
1057,89	94,33
1058,308	109,33
1058,725	111,33
1059,143	93,33
1059,561	110,33
1059,978	114,33
1060,396	103,33
1060,813	92,33
1061,231	124,33
1061,648	97,33
1062,066	90,33
1062,483	99,33
1062,9	101,33
1063,318	134,33
1063,735	100,33
1064,152	110,33
1064,57	93,33
1064,987	106,33
1065,404	98,33
1065,821	112,33
1066,238	89,33
1066,655	99,33
1067,073	101,33
1067,49	85,33
1067,907	105,33
1068,324	121,33
1068,741	94,33
1069,157	108,33
1069,574	105,33
1069,991	106,33
1070,408	93,33
1070,825	131,33
1071,242	115,33
1071,658	93,33
1072,075	116,33
1072,492	87,33
1072,908	95,33
1073,325	98,33
1073,742	80,33
1074,158	102,33
1074,575	85,33
1074,991	84,33
1075,408	92,33
1075,824	133,33
1076,24	84,33
1076,657	103,33
1077,073	108,33
1077,489	100,33
1077,906	98,33
1078,322	92,33
1078,738	109,33
1079,154	109,33
1079,571	104,33
1079,987	81,33
1080,403	109,33
1080,819	121,33
1081,235	118,33
1081,651	93,33
1082,067	91,33
1082,483	103,33
1082,899	83,33
1083,315	120,33
1083,73	127,33
1084,146	104,33
1084,562	112,33
1084,978	101,33
1085,394	109,33
1085,809	109,33
1086,225	92,33
1086,641	104,33
1087,056	99,33
1087,472	79,33
1087,887	114,33
1088,303	103,33
1088,718	91,33
1089,134	102,33
1089,549	95,33
1089,965	98,33
1090,38	94,33
1090,795	113,33
1091,21	123,33
1091,626	104,33
1092,041	83,33
1092,456	89,33
1092,871	103,33
1093,287	107,33
1093,702	95,33
1094,117	84,33
1094,532	99,33
1094,947	98,33
1095,362	108,33
1095,777	82,33
1096,192	95,33
1096,607	156,33
1097,021	106,33
1097,436	121,33
1097,851	106,33
1098,266	87,33
1098,681	108,33
1099,095	82,33
1099,51	105,33
1099,925	103,33
1100,339	110,33
1100,754	92,33
1101,168	68,33
1101,583	88,33
1101,998	103,33
1102,412	100,33
1102,826	80,33
1103,241	88,33
1103,655	117,33
1104,07	98,33
1104,484	78,33
1104,898	127,33
1105,312	97,33
1105,727	85,33
1106,141	69,33
1106,555	99,33
1106,969	94,33
1107,383	90,33
1107,797	81,33
1108,211	96,33
1108,625	89,33
1109,039	98,33
1109,453	83,33
1109,867	86,33
1110,281	81,33
1110,695	82,33
1111,109	84,33
1111,523	67,33
1111,936	66,33
1112,35	71,33
1112,764	80,33
1113,177	51,33
1113,591	62,33
1114,005	62,33
1114,418	-3,67
1114,832	-3,67
1115,245	-5,67
1115,659	0,33
