Data from 280_Subt2__0__15-07-08-366.txt Node

Date: Fri Oct 27 15:07:08 MSK 2023
User: mishev
Spectrometer: MAYP115646
Trigger mode: 0
Integration Time (sec): 5,000000E-2
Scans to average: 1
Electric dark correction enabled: true
Nonlinearity correction enabled: false
Boxcar width: 0
XAxis mode: Wavelengths
Number of Pixels in Spectrum: 2068
>>>>>Begin Spectral Data<<<<<
199,511	3,83
199,981	-0,17
200,452	1,83
200,923	0,83
201,394	8,83
201,865	-10,17
202,335	1,83
202,806	-5,17
203,277	-5,17
203,748	-9,17
204,218	-7,17
204,689	-5,17
205,159	5,83
205,63	-5,17
206,101	7,83
206,571	-4,17
207,042	-3,17
207,512	2,83
207,983	-14,17
208,453	3,83
208,923	2,83
209,394	-5,17
209,864	-4,17
210,335	3,83
210,805	0,83
211,275	-4,17
211,745	-1,17
212,216	-2,17
212,686	-13,17
213,156	4,83
213,626	9,83
214,096	11,83
214,566	-8,17
215,037	3,83
215,507	-7,17
215,977	-0,17
216,447	6,83
216,917	11,83
217,387	-4,17
217,857	-4,17
218,326	13,83
218,796	5,83
219,266	0,83
219,736	-3,17
220,206	-0,17
220,676	5,83
221,145	-4,17
221,615	-6,17
222,085	6,83
222,555	10,83
223,024	-11,17
223,494	-1,17
223,964	3,83
224,433	-0,17
224,903	5,83
225,372	-7,17
225,842	-0,17
226,311	-5,17
226,781	0,83
227,25	9,83
227,72	26,83
228,189	-13,17
228,658	-0,17
229,128	5,83
229,597	9,83
230,066	2,83
230,536	1,83
231,005	4,83
231,474	3,83
231,943	8,83
232,412	-4,17
232,881	0,83
233,351	-4,17
233,82	1,83
234,289	-0,17
234,758	1,83
235,227	-1,17
235,696	0,83
236,165	-6,17
236,634	8,83
237,103	2,83
237,572	5,83
238,04	8,83
238,509	-6,17
238,978	-8,17
239,447	11,83
239,916	-7,17
240,384	0,83
240,853	-2,17
241,322	0,83
241,79	-11,17
242,259	3,83
242,728	1,83
243,196	2,83
243,665	-3,17
244,133	-10,17
244,602	2,83
245,07	-5,17
245,539	-0,17
246,007	0,83
246,476	4,83
246,944	0,83
247,413	11,83
247,881	1,83
248,349	5,83
248,817	5,83
249,286	-9,17
249,754	-15,17
250,222	2,83
250,69	-11,17
251,159	-5,17
251,627	-9,17
252,095	2,83
252,563	-6,17
253,031	0,83
253,499	6,83
253,967	0,83
254,435	-5,17
254,903	2,83
255,371	4,83
255,839	3,83
256,307	-16,17
256,775	-11,17
257,242	12,83
257,71	-0,17
258,178	-7,17
258,646	-2,17
259,114	3,83
259,581	3,83
260,049	4,83
260,517	7,83
260,984	2,83
261,452	-3,17
261,919	4,83
262,387	-9,17
262,855	19,83
263,322	7,83
263,79	0,83
264,257	-2,17
264,724	-1,17
265,192	21,83
265,659	12,83
266,127	-10,17
266,594	-5,17
267,061	9,83
267,529	-0,17
267,996	-5,17
268,463	-11,17
268,93	3,83
269,397	-8,17
269,865	-0,17
270,332	7,83
270,799	2,83
271,266	-0,17
271,733	-6,17
272,2	5,83
272,667	3,83
273,134	6,83
273,601	6,83
274,068	4,83
274,535	-15,17
275,002	3,83
275,469	11,83
275,935	-10,17
276,402	0,83
276,869	10,83
277,336	-3,17
277,802	-1,17
278,269	-4,17
278,736	-1,17
279,203	5,83
279,669	0,83
280,136	-3,17
280,602	-2,17
281,069	9,83
281,535	2,83
282,002	-16,17
282,468	-3,17
282,935	7,83
283,401	4,83
283,868	-1,17
284,334	5,83
284,8	7,83
285,267	11,83
285,733	1,83
286,199	-2,17
286,666	2,83
287,132	8,83
287,598	-6,17
288,064	2,83
288,53	0,83
288,996	-16,17
289,463	-6,17
289,929	-0,17
290,395	-4,17
290,861	6,83
291,327	-8,17
291,793	10,83
292,259	-2,17
292,725	18,83
293,19	-2,17
293,656	-1,17
294,122	1,83
294,588	4,83
295,054	2,83
295,52	-2,17
295,985	8,83
296,451	5,83
296,917	-2,17
297,382	2,83
297,848	-3,17
298,314	-0,17
298,779	9,83
299,245	-3,17
299,71	-13,17
300,176	20,83
300,641	-4,17
301,107	7,83
301,572	-2,17
302,038	-2,17
302,503	10,83
302,968	2,83
303,434	5,83
303,899	1,83
304,364	7,83
304,83	12,83
305,295	-4,17
305,76	-5,17
306,225	1,83
306,69	2,83
307,156	-5,17
307,621	1,83
308,086	-14,17
308,551	-4,17
309,016	12,83
309,481	-6,17
309,946	18,83
310,411	1,83
310,876	4,83
311,341	11,83
311,806	-7,17
312,27	4,83
312,735	4,83
313,2	14,83
313,665	-10,17
314,13	-2,17
314,594	-8,17
315,059	6,83
315,524	-1,17
315,988	5,83
316,453	-15,17
316,918	-0,17
317,382	-0,17
317,847	-8,17
318,311	-2,17
318,776	6,83
319,24	7,83
319,705	-1,17
320,169	4,83
320,634	-0,17
321,098	10,83
321,562	-7,17
322,027	6,83
322,491	9,83
322,955	-7,17
323,419	-2,17
323,884	11,83
324,348	-0,17
324,812	0,83
325,276	7,83
325,74	11,83
326,204	-14,17
326,668	-1,17
327,132	6,83
327,596	-2,17
328,06	-1,17
328,524	3,83
328,988	-6,17
329,452	9,83
329,916	4,83
330,38	8,83
330,844	-3,17
331,308	-7,17
331,771	-1,17
332,235	-2,17
332,699	6,83
333,163	-9,17
333,626	7,83
334,09	4,83
334,554	-9,17
335,017	-13,17
335,481	4,83
335,944	-13,17
336,408	-17,17
336,871	10,83
337,335	5,83
337,798	3,83
338,262	4,83
338,725	7,83
339,188	-5,17
339,652	9,83
340,115	3,83
340,578	-1,17
341,042	-4,17
341,505	-2,17
341,968	7,83
342,431	-8,17
342,895	4,83
343,358	10,83
343,821	-8,17
344,284	6,83
344,747	-1,17
345,21	7,83
345,673	5,83
346,136	-0,17
346,599	3,83
347,062	2,83
347,525	6,83
347,988	-0,17
348,451	5,83
348,913	5,83
349,376	3,83
349,839	-15,17
350,302	2,83
350,765	-4,17
351,227	0,83
351,69	7,83
352,153	5,83
352,615	0,83
353,078	-12,17
353,54	1,83
354,003	11,83
354,465	1,83
354,928	-13,17
355,39	7,83
355,853	-6,17
356,315	7,83
356,778	-4,17
357,24	-0,17
357,702	-7,17
358,165	0,83
358,627	3,83
359,089	0,83
359,552	9,83
360,014	-0,17
360,476	-8,17
360,938	-0,17
361,4	0,83
361,862	1,83
362,325	-7,17
362,787	-4,17
363,249	-1,17
363,711	-6,17
364,173	-7,17
364,635	-1,17
365,097	-3,17
365,558	2,83
366,02	-2,17
366,482	3,83
366,944	-5,17
367,406	8,83
367,868	2,83
368,329	8,83
368,791	-11,17
369,253	-8,17
369,714	8,83
370,176	8,83
370,638	-4,17
371,099	4,83
371,561	0,83
372,022	-12,17
372,484	-11,17
372,945	-4,17
373,407	8,83
373,868	6,83
374,33	-1,17
374,791	-4,17
375,253	11,83
375,714	-0,17
376,175	-2,17
376,637	3,83
377,098	11,83
377,559	-0,17
378,02	-2,17
378,481	2,83
378,943	-7,17
379,404	0,83
379,865	-9,17
380,326	1,83
380,787	6,83
381,248	-5,17
381,709	4,83
382,17	2,83
382,631	-2,17
383,092	-8,17
383,553	-0,17
384,014	1,83
384,474	-5,17
384,935	-1,17
385,396	-2,17
385,857	3,83
386,318	6,83
386,778	4,83
387,239	-6,17
387,7	9,83
388,16	9,83
388,621	-7,17
389,082	10,83
389,542	-9,17
390,003	6,83
390,463	-6,17
390,924	-0,17
391,384	-13,17
391,845	0,83
392,305	10,83
392,765	0,83
393,226	-3,17
393,686	6,83
394,146	6,83
394,607	0,83
395,067	9,83
395,527	5,83
395,987	-9,17
396,447	9,83
396,908	-0,17
397,368	-1,17
397,828	-15,17
398,288	-9,17
398,748	2,83
399,208	2,83
399,668	-0,17
400,128	-6,17
400,588	12,83
401,048	-3,17
401,508	7,83
401,968	-12,17
402,427	-1,17
402,887	-0,17
403,347	10,83
403,807	-2,17
404,266	-18,17
404,726	-0,17
405,186	-8,17
405,645	7,83
406,105	-7,17
406,565	-5,17
407,024	15,83
407,484	-8,17
407,943	-3,17
408,403	-0,17
408,862	-26,17
409,322	-36,17
409,781	-3,17
410,241	5,83
410,7	-20,17
411,159	-22,17
411,619	-36,17
412,078	-6,17
412,537	-5,17
412,996	-46,17
413,456	-33,17
413,915	-38,17
414,374	-49,17
414,833	-15,17
415,292	14,83
415,751	-19,17
416,21	-38,17
416,669	-47,17
417,128	-67,17
417,587	-67,17
418,046	7,83
418,505	-20,17
418,964	-56,17
419,423	-36,17
419,882	-51,17
420,341	-57,17
420,799	-115,17
421,258	-146,17
421,717	-19,17
422,176	-46,17
422,634	-43,17
423,093	-142,17
423,552	-179,17
424,01	-9,17
424,469	-103,17
424,927	-86,17
425,386	-134,17
425,844	-84,17
426,303	-174,17
426,761	-135,17
427,22	-84,17
427,678	-43,17
428,137	-288,17
428,595	-220,17
429,053	-261,17
429,512	-198,17
429,97	-259,17
430,428	-281,17
430,886	-139,17
431,344	-333,17
431,803	-287,17
432,261	-364,17
432,719	-340,17
433,177	-466,17
433,635	-299,17
434,093	-229,17
434,551	-346,17
435,009	-578,17
435,467	-191,17
435,925	-233,17
436,383	-338,17
436,841	-409,17
437,299	-627,17
437,756	-513,17
438,214	-582,17
438,672	-663,17
439,13	-739,17
439,587	-364,17
440,045	-436,17
440,503	-615,17
440,96	-722,17
441,418	-399,17
441,876	-786,17
442,333	-657,17
442,791	-1150,17
443,248	-983,17
443,706	-1044,17
444,163	-679,17
444,621	-898,17
445,078	-1133,17
445,535	-938,17
445,993	-844,17
446,45	-975,17
446,907	-937,17
447,365	-1214,17
447,822	-892,17
448,279	-1005,17
448,736	-824,17
449,193	-635,17
449,651	-1098,17
450,108	-590,17
450,565	-1067,17
451,022	-678,17
451,479	-581,17
451,936	-1027,17
452,393	-525,17
452,85	-644,17
453,307	-320,17
453,764	-768,17
454,221	-411,17
454,677	-485,17
455,134	-421,17
455,591	-597,17
456,048	-345,17
456,505	-397,17
456,961	-22,17
457,418	-352,17
457,875	-263,17
458,331	-515,17
458,788	-228,17
459,244	-122,17
459,701	-515,17
460,158	-205,17
460,614	-176,17
461,071	-181,17
461,527	-83,17
461,983	-210,17
462,44	-34,17
462,896	-390,17
463,353	-326,17
463,809	-88,17
464,265	-226,17
464,721	-182,17
465,178	-127,17
465,634	13,83
466,09	109,83
466,546	113,83
467,002	-170,17
467,458	-233,17
467,915	-235,17
468,371	-201,17
468,827	-159,17
469,283	-80,17
469,739	93,83
470,195	85,83
470,651	-59,17
471,106	58,83
471,562	-98,17
472,018	-211,17
472,474	-82,17
472,93	-218,17
473,386	-171,17
473,841	-89,17
474,297	-171,17
474,753	193,83
475,208	-56,17
475,664	-51,17
476,12	-144,17
476,575	-82,17
477,031	-27,17
477,486	-91,17
477,942	-191,17
478,397	-14,17
478,853	46,83
479,308	-71,17
479,763	-61,17
480,219	-55,17
480,674	-99,17
481,13	-60,17
481,585	-82,17
482,04	-190,17
482,495	-62,17
482,951	-76,17
483,406	56,83
483,861	-73,17
484,316	-111,17
484,771	-72,17
485,226	-42,17
485,681	-71,17
486,136	-85,17
486,591	-92,17
487,046	-140,17
487,501	-85,17
487,956	-172,17
488,411	-16,17
488,866	-83,17
489,321	44,83
489,775	-155,17
490,23	53,83
490,685	-168,17
491,14	-218,17
491,594	-171,17
492,049	-92,17
492,504	-193,17
492,958	-201,17
493,413	42,83
493,868	34,83
494,322	-93,17
494,777	-117,17
495,231	-143,17
495,686	-35,17
496,14	-240,17
496,594	-71,17
497,049	-315,17
497,503	-79,17
497,958	-269,17
498,412	-45,17
498,866	-190,17
499,32	-56,17
499,775	-142,17
500,229	-230,17
500,683	-170,17
501,137	-313,17
501,591	-72,17
502,045	-79,17
502,499	-280,17
502,953	-49,17
503,407	-235,17
503,861	-240,17
504,315	-215,17
504,769	-286,17
505,223	-131,17
505,677	-337,17
506,131	-198,17
506,585	-423,17
507,039	-256,17
507,492	-133,17
507,946	-84,17
508,4	-226,17
508,854	-317,17
509,307	-498,17
509,761	-428,17
510,214	-389,17
510,668	-274,17
511,122	-329,17
511,575	-344,17
512,029	-248,17
512,482	-134,17
512,936	-398,17
513,389	-252,17
513,842	-356,17
514,296	-564,17
514,749	-358,17
515,202	-196,17
515,656	-452,17
516,109	-431,17
516,562	-288,17
517,015	-381,17
517,469	-405,17
517,922	-361,17
518,375	-310,17
518,828	-264,17
519,281	-519,17
519,734	-292,17
520,187	-497,17
520,64	-259,17
521,093	-227,17
521,546	-475,17
521,999	-65,17
522,452	-443,17
522,905	-159,17
523,358	-100,17
523,81	-319,17
524,263	-267,17
524,716	-346,17
525,169	-320,17
525,621	-189,17
526,074	-412,17
526,527	-588,17
526,979	-99,17
527,432	-373,17
527,884	-437,17
528,337	-572,17
528,789	-311,17
529,242	-288,17
529,694	-271,17
530,147	-295,17
530,599	-143,17
531,052	-299,17
531,504	-124,17
531,956	-121,17
532,409	-203,17
532,861	-184,17
533,313	-485,17
533,765	-175,17
534,218	-386,17
534,67	-208,17
535,122	-208,17
535,574	-233,17
536,026	-212,17
536,478	-359,17
536,93	-33,17
537,382	-116,17
537,834	-371,17
538,286	-375,17
538,738	26,83
539,19	-315,17
539,642	-317,17
540,094	-132,17
540,545	-357,17
540,997	-306,17
541,449	-184,17
541,901	-231,17
542,352	-77,17
542,804	162,83
543,256	-565,17
543,707	-314,17
544,159	-138,17
544,611	-59,17
545,062	-201,17
545,514	-102,17
545,965	37,83
546,417	-37,17
546,868	-95,17
547,319	-77,17
547,771	-314,17
548,222	-228,17
548,674	84,83
549,125	-251,17
549,576	-408,17
550,027	-59,17
550,479	-116,17
550,93	-308,17
551,381	-129,17
551,832	103,83
552,283	-41,17
552,734	-194,17
553,185	9,83
553,636	-97,17
554,087	-157,17
554,538	-20,17
554,989	127,83
555,44	-81,17
555,891	-56,17
556,342	-105,17
556,793	-74,17
557,244	-59,17
557,694	-330,17
558,145	-210,17
558,596	-186,17
559,047	197,83
559,497	90,83
559,948	229,83
560,399	-18,17
560,849	193,83
561,3	293,83
561,75	153,83
562,201	6,83
562,651	169,83
563,102	279,83
563,552	-42,17
564,003	135,83
564,453	103,83
564,903	58,83
565,354	325,83
565,804	178,83
566,254	60,83
566,705	226,83
567,155	235,83
567,605	245,83
568,055	119,83
568,505	454,83
568,955	371,83
569,405	362,83
569,856	421,83
570,306	246,83
570,756	178,83
571,206	269,83
571,656	244,83
572,105	261,83
572,555	209,83
573,005	327,83
573,455	17,83
573,905	225,83
574,355	519,83
574,804	555,83
575,254	279,83
575,704	398,83
576,154	677,83
576,603	307,83
577,053	442,83
577,502	426,83
577,952	378,83
578,402	426,83
578,851	876,83
579,301	745,83
579,75	761,83
580,199	748,83
580,649	836,83
581,098	822,83
581,548	726,83
581,997	687,83
582,446	527,83
582,895	504,83
583,345	870,83
583,794	787,83
584,243	865,83
584,692	704,83
585,141	913,83
585,591	965,83
586,04	769,83
586,489	871,83
586,938	654,83
587,387	766,83
587,836	829,83
588,285	897,83
588,734	1252,83
589,182	972,83
589,631	1045,83
590,08	946,83
590,529	1145,83
590,978	1166,83
591,426	1210,83
591,875	1424,83
592,324	1345,83
592,773	1104,83
593,221	1363,83
593,67	1360,83
594,118	1105,83
594,567	1285,83
595,016	1479,83
595,464	1472,83
595,913	1612,83
596,361	1295,83
596,809	1562,83
597,258	1511,83
597,706	1415,83
598,155	1627,83
598,603	1617,83
599,051	1526,83
599,499	1692,83
599,948	1398,83
600,396	1692,83
600,844	1731,83
601,292	1776,83
601,74	1578,83
602,188	1689,83
602,636	2009,83
603,085	1955,83
603,533	1844,83
603,981	2238,83
604,429	2100,83
604,876	2097,83
605,324	2108,83
605,772	2355,83
606,22	2237,83
606,668	2408,83
607,116	2567,83
607,563	2635,83
608,011	2755,83
608,459	2493,83
608,907	2702,83
609,354	2748,83
609,802	2899,83
610,25	2964,83
610,697	3030,83
611,145	3102,83
611,592	3166,83
612,04	3526,83
612,487	3304,83
612,935	3414,83
613,382	3525,83
613,829	3711,83
614,277	3880,83
614,724	3792,83
615,171	3959,83
615,619	4208,83
616,066	4130,83
616,513	4365,83
616,96	4585,83
617,408	4526,83
617,855	4822,83
618,302	4794,83
618,749	5019,83
619,196	5277,83
619,643	5121,83
620,09	5400,83
620,537	5458,83
620,984	5428,83
621,431	5656,83
621,878	5835,83
622,325	5864,83
622,771	5998,83
623,218	6198,83
623,665	6410,83
624,112	6549,83
624,559	6703,83
625,005	7039,83
625,452	6915,83
625,899	7118,83
626,345	6993,83
626,792	7118,83
627,238	7322,83
627,685	7339,83
628,131	7294,83
628,578	7395,83
629,024	7510,83
629,471	7629,83
629,917	7734,83
630,364	7915,83
630,81	7883,83
631,256	8067,83
631,703	7846,83
632,149	7998,83
632,595	7929,83
633,041	7921,83
633,487	7972,83
633,934	7993,83
634,38	8062,83
634,826	7978,83
635,272	7959,83
635,718	7972,83
636,164	8015,83
636,61	7817,83
637,056	7762,83
637,502	7694,83
637,948	7712,83
638,394	7510,83
638,839	7814,83
639,285	7597,83
639,731	7366,83
640,177	7279,83
640,623	7473,83
641,068	7322,83
641,514	7196,83
641,96	7140,83
642,405	7202,83
642,851	6826,83
643,296	6792,83
643,742	6683,83
644,187	6636,83
644,633	6543,83
645,078	6438,83
645,524	6342,83
645,969	6296,83
646,415	6174,83
646,86	6139,83
647,305	6001,83
647,751	5864,83
648,196	5739,83
648,641	5671,83
649,086	5475,83
649,532	5284,83
649,977	5288,83
650,422	5235,83
650,867	5119,83
651,312	5020,83
651,757	5066,83
652,202	4828,83
652,647	4716,83
653,092	4536,83
653,537	4586,83
653,982	4320,83
654,427	4314,83
654,872	4183,83
655,316	4213,83
655,761	3892,83
656,206	4143,83
656,651	3879,83
657,096	3801,83
657,54	3610,83
657,985	3636,83
658,43	3544,83
658,874	3353,83
659,319	3377,83
659,763	3227,83
660,208	3202,83
660,652	3114,83
661,097	3002,83
661,541	3079,83
661,986	2786,83
662,43	2944,83
662,874	2720,83
663,319	2645,83
663,763	2564,83
664,207	2569,83
664,651	2418,83
665,096	2288,83
665,54	2244,83
665,984	2176,83
666,428	2181,83
666,872	2030,83
667,316	2006,83
667,76	1970,83
668,204	2102,83
668,648	1837,83
669,092	1817,83
669,536	1868,83
669,98	1805,83
670,424	1726,83
670,868	1570,83
671,312	1669,83
671,756	1738,83
672,199	1536,83
672,643	1385,83
673,087	1502,83
673,531	1447,83
673,974	1592,83
674,418	1407,83
674,862	1324,83
675,305	1261,83
675,749	1295,83
676,192	1169,83
676,636	1134,83
677,079	1216,83
677,523	1208,83
677,966	1090,83
678,409	1105,83
678,853	1094,83
679,296	1006,83
679,739	934,83
680,183	966,83
680,626	963,83
681,069	796,83
681,512	770,83
681,955	882,83
682,399	855,83
682,842	923,83
683,285	846,83
683,728	855,83
684,171	750,83
684,614	772,83
685,057	775,83
685,5	731,83
685,943	663,83
686,386	617,83
686,828	719,83
687,271	595,83
687,714	656,83
688,157	669,83
688,6	593,83
689,042	646,83
689,485	577,83
689,928	569,83
690,37	549,83
690,813	485,83
691,255	578,83
691,698	573,83
692,141	476,83
692,583	472,83
693,025	475,83
693,468	491,83
693,91	466,83
694,353	458,83
694,795	441,83
695,237	420,83
695,68	369,83
696,122	403,83
696,564	352,83
697,006	446,83
697,449	425,83
697,891	321,83
698,333	349,83
698,775	388,83
699,217	319,83
699,659	389,83
700,101	326,83
700,543	310,83
700,985	284,83
701,427	310,83
701,869	319,83
702,311	342,83
702,753	285,83
703,195	291,83
703,636	240,83
704,078	243,83
704,52	245,83
704,962	311,83
705,403	287,83
705,845	209,83
706,286	303,83
706,728	248,83
707,17	258,83
707,611	179,83
708,053	192,83
708,494	178,83
708,936	250,83
709,377	241,83
709,819	146,83
710,26	174,83
710,701	222,83
711,143	165,83
711,584	157,83
712,025	187,83
712,466	213,83
712,908	181,83
713,349	170,83
713,79	138,83
714,231	159,83
714,672	145,83
715,113	198,83
715,554	154,83
715,995	121,83
716,436	169,83
716,877	145,83
717,318	115,83
717,759	113,83
718,2	87,83
718,641	112,83
719,082	132,83
719,522	78,83
719,963	119,83
720,404	88,83
720,844	106,83
721,285	106,83
721,726	128,83
722,166	130,83
722,607	128,83
723,048	84,83
723,488	72,83
723,929	147,83
724,369	64,83
724,81	114,83
725,25	127,83
725,69	86,83
726,131	65,83
726,571	72,83
727,011	87,83
727,452	73,83
727,892	105,83
728,332	62,83
728,772	67,83
729,212	55,83
729,653	68,83
730,093	90,83
730,533	74,83
730,973	75,83
731,413	83,83
731,853	42,83
732,293	90,83
732,733	77,83
733,173	118,83
733,613	125,83
734,052	41,83
734,492	63,83
734,932	22,83
735,372	50,83
735,812	29,83
736,251	66,83
736,691	38,83
737,131	38,83
737,57	57,83
738,01	55,83
738,449	45,83
738,889	73,83
739,329	79,83
739,768	49,83
740,208	63,83
740,647	34,83
741,086	58,83
741,526	59,83
741,965	88,83
742,404	25,83
742,844	54,83
743,283	77,83
743,722	8,83
744,161	87,83
744,601	27,83
745,04	33,83
745,479	84,83
745,918	42,83
746,357	22,83
746,796	7,83
747,235	36,83
747,674	24,83
748,113	43,83
748,552	33,83
748,991	21,83
749,43	22,83
749,869	30,83
750,307	38,83
750,746	21,83
751,185	31,83
751,624	44,83
752,062	16,83
752,501	29,83
752,94	41,83
753,378	31,83
753,817	28,83
754,255	42,83
754,694	28,83
755,132	28,83
755,571	14,83
756,009	15,83
756,448	43,83
756,886	14,83
757,325	25,83
757,763	42,83
758,201	29,83
758,639	48,83
759,078	19,83
759,516	34,83
759,954	50,83
760,392	20,83
760,83	15,83
761,268	28,83
761,707	-1,17
762,145	52,83
762,583	24,83
763,021	4,83
763,459	14,83
763,896	36,83
764,334	46,83
764,772	25,83
765,21	18,83
765,648	39,83
766,086	4,83
766,524	26,83
766,961	20,83
767,399	28,83
767,837	30,83
768,274	24,83
768,712	18,83
769,149	16,83
769,587	18,83
770,025	3,83
770,462	24,83
770,9	30,83
771,337	10,83
771,774	18,83
772,212	-4,17
772,649	10,83
773,087	19,83
773,524	9,83
773,961	9,83
774,398	30,83
774,836	16,83
775,273	-9,17
775,71	34,83
776,147	10,83
776,584	30,83
777,021	1,83
777,458	11,83
777,895	23,83
778,332	1,83
778,769	26,83
779,206	27,83
779,643	11,83
780,08	5,83
780,517	10,83
780,954	14,83
781,391	20,83
781,827	6,83
782,264	15,83
782,701	6,83
783,137	33,83
783,574	5,83
784,011	36,83
784,447	-12,17
784,884	38,83
785,32	31,83
785,757	0,83
786,193	9,83
786,63	31,83
787,066	12,83
787,503	3,83
787,939	27,83
788,375	12,83
788,812	6,83
789,248	13,83
789,684	20,83
790,12	4,83
790,557	-4,17
790,993	13,83
791,429	18,83
791,865	6,83
792,301	21,83
792,737	10,83
793,173	10,83
793,609	-1,17
794,045	-1,17
794,481	12,83
794,917	16,83
795,353	13,83
795,789	9,83
796,225	20,83
796,66	5,83
797,096	26,83
797,532	13,83
797,968	14,83
798,403	19,83
798,839	5,83
799,275	-4,17
799,71	22,83
800,146	-6,17
800,581	10,83
801,017	15,83
801,452	6,83
801,888	-3,17
802,323	4,83
802,759	15,83
803,194	4,83
803,629	1,83
804,065	6,83
804,5	33,83
804,935	-3,17
805,37	0,83
805,806	-3,17
806,241	16,83
806,676	21,83
807,111	3,83
807,546	-2,17
807,981	0,83
808,416	18,83
808,851	3,83
809,286	10,83
809,721	3,83
810,156	20,83
810,591	3,83
811,026	15,83
811,46	8,83
811,895	-5,17
812,33	0,83
812,765	6,83
813,199	-14,17
813,634	6,83
814,069	0,83
814,503	-8,17
814,938	5,83
815,373	8,83
815,807	5,83
816,242	3,83
816,676	2,83
817,111	11,83
817,545	-0,17
817,979	-6,17
818,414	-9,17
818,848	-8,17
819,282	-6,17
819,717	8,83
820,151	6,83
820,585	12,83
821,019	-2,17
821,453	-14,17
821,888	-5,17
822,322	-5,17
822,756	12,83
823,19	8,83
823,624	-12,17
824,058	-8,17
824,492	15,83
824,926	8,83
825,36	-0,17
825,794	4,83
826,227	11,83
826,661	10,83
827,095	3,83
827,529	7,83
827,962	7,83
828,396	0,83
828,83	3,83
829,263	-1,17
829,697	7,83
830,131	-0,17
830,564	11,83
830,998	6,83
831,431	-5,17
831,865	3,83
832,298	-6,17
832,732	-11,17
833,165	2,83
833,598	-10,17
834,032	16,83
834,465	23,83
834,898	12,83
835,331	-0,17
835,765	-13,17
836,198	-4,17
836,631	-0,17
837,064	-2,17
837,497	-0,17
837,93	8,83
838,363	2,83
838,796	-17,17
839,229	9,83
839,662	-1,17
840,095	13,83
840,528	11,83
840,961	24,83
841,394	14,83
841,827	9,83
842,259	-1,17
842,692	16,83
843,125	7,83
843,558	-8,17
843,99	11,83
844,423	10,83
844,855	-3,17
845,288	6,83
845,721	15,83
846,153	-10,17
846,586	1,83
847,018	-9,17
847,45	-5,17
847,883	11,83
848,315	-6,17
848,748	2,83
849,18	7,83
849,612	16,83
850,044	14,83
850,477	-5,17
850,909	-8,17
851,341	-0,17
851,773	0,83
852,205	-3,17
852,637	-1,17
853,069	8,83
853,501	-1,17
853,933	-0,17
854,365	-2,17
854,797	12,83
855,229	-6,17
855,661	-4,17
856,093	9,83
856,525	-2,17
856,957	-13,17
857,388	10,83
857,82	-2,17
858,252	-8,17
858,683	-3,17
859,115	10,83
859,547	-0,17
859,978	7,83
860,41	-2,17
860,841	0,83
861,273	-1,17
861,704	0,83
862,136	5,83
862,567	-5,17
862,999	11,83
863,43	7,83
863,861	10,83
864,293	7,83
864,724	-0,17
865,155	4,83
865,586	-10,17
866,017	-17,17
866,449	10,83
866,88	4,83
867,311	-1,17
867,742	-12,17
868,173	2,83
868,604	-2,17
869,035	5,83
869,466	-3,17
869,897	0,83
870,328	17,83
870,759	-4,17
871,189	-4,17
871,62	-9,17
872,051	-2,17
872,482	-1,17
872,912	11,83
873,343	2,83
873,774	5,83
874,204	2,83
874,635	-3,17
875,066	3,83
875,496	-1,17
875,927	-9,17
876,357	-1,17
876,788	-2,17
877,218	0,83
877,648	1,83
878,079	-5,17
878,509	2,83
878,939	-14,17
879,37	9,83
879,8	-2,17
880,23	6,83
880,66	8,83
881,091	1,83
881,521	-1,17
881,951	8,83
882,381	-2,17
882,811	-0,17
883,241	5,83
883,671	-0,17
884,101	3,83
884,531	2,83
884,961	9,83
885,391	8,83
885,82	2,83
886,25	3,83
886,68	1,83
887,11	-5,17
887,539	17,83
887,969	-0,17
888,399	1,83
888,828	1,83
889,258	-14,17
889,688	8,83
890,117	4,83
890,547	1,83
890,976	-7,17
891,406	-8,17
891,835	2,83
892,264	-1,17
892,694	-11,17
893,123	8,83
893,553	6,83
893,982	4,83
894,411	-2,17
894,84	6,83
895,269	-7,17
895,699	-3,17
896,128	3,83
896,557	0,83
896,986	-1,17
897,415	1,83
897,844	-13,17
898,273	-10,17
898,702	-0,17
899,131	-4,17
899,56	2,83
899,989	7,83
900,418	3,83
900,846	6,83
901,275	1,83
901,704	-0,17
902,133	-18,17
902,561	5,83
902,99	8,83
903,419	12,83
903,847	1,83
904,276	-7,17
904,704	-0,17
905,133	-3,17
905,561	-2,17
905,99	-5,17
906,418	5,83
906,847	-9,17
907,275	-0,17
907,704	3,83
908,132	1,83
908,56	-12,17
908,988	9,83
909,417	6,83
909,845	-8,17
910,273	4,83
910,701	1,83
911,129	11,83
911,557	-0,17
911,985	7,83
912,413	0,83
912,841	-5,17
913,269	-5,17
913,697	5,83
914,125	3,83
914,553	-0,17
914,981	1,83
915,409	0,83
915,837	-1,17
916,264	4,83
916,692	-4,17
917,12	14,83
917,547	-14,17
917,975	0,83
918,403	4,83
918,83	-7,17
919,258	5,83
919,685	0,83
920,113	-6,17
920,54	-5,17
920,968	-3,17
921,395	-2,17
921,823	3,83
922,25	-1,17
922,677	-8,17
923,104	5,83
923,532	17,83
923,959	3,83
924,386	-5,17
924,813	-3,17
925,24	1,83
925,668	-7,17
926,095	-5,17
926,522	12,83
926,949	-7,17
927,376	-1,17
927,803	8,83
928,23	-1,17
928,657	-5,17
929,083	-2,17
929,51	4,83
929,937	5,83
930,364	-4,17
930,791	3,83
931,217	-6,17
931,644	0,83
932,071	2,83
932,497	-13,17
932,924	-5,17
933,351	2,83
933,777	-9,17
934,204	10,83
934,63	2,83
935,057	5,83
935,483	8,83
935,909	7,83
936,336	-2,17
936,762	2,83
937,188	7,83
937,615	-7,17
938,041	8,83
938,467	-1,17
938,893	-5,17
939,32	-4,17
939,746	-7,17
940,172	2,83
940,598	12,83
941,024	-0,17
941,45	8,83
941,876	-3,17
942,302	-3,17
942,728	8,83
943,154	-6,17
943,58	0,83
944,005	0,83
944,431	3,83
944,857	3,83
945,283	4,83
945,709	-3,17
946,134	4,83
946,56	8,83
946,986	-4,17
947,411	-3,17
947,837	0,83
948,262	3,83
948,688	-0,17
949,113	4,83
949,539	-1,17
949,964	-5,17
950,39	-4,17
950,815	9,83
951,24	0,83
951,666	12,83
952,091	-3,17
952,516	0,83
952,941	-0,17
953,367	10,83
953,792	-3,17
954,217	3,83
954,642	0,83
955,067	-7,17
955,492	2,83
955,917	-5,17
956,342	6,83
956,767	-1,17
957,192	-0,17
957,617	6,83
958,042	4,83
958,466	9,83
958,891	-4,17
959,316	9,83
959,741	-1,17
960,166	-10,17
960,59	-3,17
961,015	-2,17
961,439	-11,17
961,864	3,83
962,289	-4,17
962,713	-5,17
963,138	-1,17
963,562	3,83
963,987	-0,17
964,411	-10,17
964,835	-8,17
965,26	3,83
965,684	5,83
966,108	2,83
966,533	21,83
966,957	-2,17
967,381	-5,17
967,805	-2,17
968,229	-9,17
968,654	0,83
969,078	-2,17
969,502	12,83
969,926	6,83
970,35	4,83
970,774	-1,17
971,198	3,83
971,622	10,83
972,045	6,83
972,469	-4,17
972,893	4,83
973,317	-8,17
973,741	1,83
974,164	-1,17
974,588	4,83
975,012	4,83
975,435	14,83
975,859	-0,17
976,283	-2,17
976,706	1,83
977,13	-13,17
977,553	-11,17
977,977	-2,17
978,4	3,83
978,824	3,83
979,247	2,83
979,67	-2,17
980,094	2,83
980,517	-0,17
980,94	-3,17
981,363	0,83
981,786	6,83
982,21	-0,17
982,633	5,83
983,056	1,83
983,479	4,83
983,902	15,83
984,325	-5,17
984,748	7,83
985,171	1,83
985,594	4,83
986,017	3,83
986,44	3,83
986,863	-2,17
987,285	3,83
987,708	6,83
988,131	1,83
988,554	-0,17
988,976	-7,17
989,399	-11,17
989,822	4,83
990,244	9,83
990,667	6,83
991,089	8,83
991,512	7,83
991,934	-4,17
992,357	-1,17
992,779	2,83
993,201	-9,17
993,624	3,83
994,046	-12,17
994,468	11,83
994,891	-7,17
995,313	-2,17
995,735	-1,17
996,157	1,83
996,579	-0,17
997,002	-7,17
997,424	-0,17
997,846	1,83
998,268	-7,17
998,69	-3,17
999,112	3,83
999,534	8,83
999,956	-3,17
1000,377	8,83
1000,799	7,83
1001,221	-3,17
1001,643	-2,17
1002,065	-11,17
1002,486	-12,17
1002,908	8,83
1003,33	-3,17
1003,751	-5,17
1004,173	0,83
1004,595	-0,17
1005,016	14,83
1005,438	-6,17
1005,859	-1,17
1006,281	-0,17
1006,702	2,83
1007,123	3,83
1007,545	-3,17
1007,966	6,83
1008,387	0,83
1008,809	-1,17
1009,23	3,83
1009,651	-4,17
1010,072	-2,17
1010,494	-1,17
1010,915	12,83
1011,336	5,83
1011,757	0,83
1012,178	4,83
1012,599	-1,17
1013,02	-12,17
1013,441	-7,17
1013,862	-1,17
1014,283	-2,17
1014,703	0,83
1015,124	-4,17
1015,545	-0,17
1015,966	5,83
1016,387	-3,17
1016,807	-6,17
1017,228	15,83
1017,649	-2,17
1018,069	-7,17
1018,49	-10,17
1018,91	5,83
1019,331	3,83
1019,751	-7,17
1020,172	8,83
1020,592	-5,17
1021,013	-1,17
1021,433	1,83
1021,853	-0,17
1022,274	-8,17
1022,694	-8,17
1023,114	-2,17
1023,535	13,83
1023,955	9,83
1024,375	10,83
1024,795	-1,17
1025,215	11,83
1025,635	-7,17
1026,055	-4,17
1026,475	-3,17
1026,895	-1,17
1027,315	-0,17
1027,735	0,83
1028,155	2,83
1028,575	8,83
1028,995	-6,17
1029,414	4,83
1029,834	-1,17
1030,254	8,83
1030,674	4,83
1031,093	9,83
1031,513	-6,17
1031,933	-2,17
1032,352	-10,17
1032,772	2,83
1033,191	-2,17
1033,611	-0,17
1034,03	4,83
1034,45	-8,17
1034,869	-6,17
1035,289	4,83
1035,708	0,83
1036,127	1,83
1036,546	19,83
1036,966	7,83
1037,385	-3,17
1037,804	-11,17
1038,223	-1,17
1038,642	16,83
1039,062	4,83
1039,481	3,83
1039,9	-4,17
1040,319	17,83
1040,738	-4,17
1041,157	-2,17
1041,576	3,83
1041,994	2,83
1042,413	0,83
1042,832	-0,17
1043,251	1,83
1043,67	-3,17
1044,088	-0,17
1044,507	1,83
1044,926	3,83
1045,345	-0,17
1045,763	3,83
1046,182	-3,17
1046,6	-3,17
1047,019	-16,17
1047,437	3,83
1047,856	8,83
1048,274	-4,17
1048,693	1,83
1049,111	-2,17
1049,529	4,83
1049,948	-10,17
1050,366	-0,17
1050,784	0,83
1051,202	-0,17
1051,621	-1,17
1052,039	2,83
1052,457	6,83
1052,875	5,83
1053,293	2,83
1053,711	-6,17
1054,129	1,83
1054,547	3,83
1054,965	2,83
1055,383	-13,17
1055,801	-2,17
1056,219	5,83
1056,637	-7,17
1057,054	-4,17
1057,472	1,83
1057,89	5,83
1058,308	2,83
1058,725	-14,17
1059,143	13,83
1059,561	3,83
1059,978	6,83
1060,396	-7,17
1060,813	6,83
1061,231	-5,17
1061,648	3,83
1062,066	5,83
1062,483	-1,17
1062,9	3,83
1063,318	8,83
1063,735	-2,17
1064,152	2,83
1064,57	18,83
1064,987	1,83
1065,404	5,83
1065,821	-3,17
1066,238	7,83
1066,655	7,83
1067,073	3,83
1067,49	-0,17
1067,907	1,83
1068,324	5,83
1068,741	13,83
1069,157	-0,17
1069,574	-10,17
1069,991	-7,17
1070,408	-2,17
1070,825	-14,17
1071,242	8,83
1071,658	7,83
1072,075	6,83
1072,492	-6,17
1072,908	3,83
1073,325	3,83
1073,742	9,83
1074,158	13,83
1074,575	-10,17
1074,991	-2,17
1075,408	5,83
1075,824	-8,17
1076,24	2,83
1076,657	-11,17
1077,073	-6,17
1077,489	5,83
1077,906	4,83
1078,322	-3,17
1078,738	-4,17
1079,154	8,83
1079,571	-11,17
1079,987	1,83
1080,403	-4,17
1080,819	14,83
1081,235	1,83
1081,651	5,83
1082,067	-2,17
1082,483	4,83
1082,899	-0,17
1083,315	0,83
1083,73	16,83
1084,146	8,83
1084,562	6,83
1084,978	-8,17
1085,394	4,83
1085,809	7,83
1086,225	-2,17
1086,641	-6,17
1087,056	3,83
1087,472	-0,17
1087,887	2,83
1088,303	6,83
1088,718	14,83
1089,134	1,83
1089,549	-2,17
1089,965	-0,17
1090,38	-1,17
1090,795	5,83
1091,21	6,83
1091,626	8,83
1092,041	-4,17
1092,456	10,83
1092,871	7,83
1093,287	-14,17
1093,702	0,83
1094,117	-2,17
1094,532	-4,17
1094,947	6,83
1095,362	7,83
1095,777	-6,17
1096,192	15,83
1096,607	9,83
1097,021	-6,17
1097,436	-8,17
1097,851	-7,17
1098,266	5,83
1098,681	3,83
1099,095	-0,17
1099,51	-0,17
1099,925	0,83
1100,339	11,83
1100,754	-6,17
1101,168	8,83
1101,583	-1,17
1101,998	1,83
1102,412	-5,17
1102,826	4,83
1103,241	6,83
1103,655	-13,17
1104,07	2,83
1104,484	-8,17
1104,898	-1,17
1105,312	-2,17
1105,727	-2,17
1106,141	-5,17
1106,555	-3,17
1106,969	-1,17
1107,383	-0,17
1107,797	2,83
1108,211	-8,17
1108,625	-3,17
1109,039	10,83
1109,453	-5,17
1109,867	-6,17
1110,281	6,83
1110,695	1,83
1111,109	1,83
1111,523	3,83
1111,936	2,83
1112,35	-3,17
1112,764	2,83
1113,177	4,83
1113,591	-1,17
1114,005	4,83
1114,418	1,83
1114,832	-4,17
1115,245	2,83
1115,659	-3,17
