Data from 308_Subt2__0__15-25-55-607.txt Node

Date: Fri Oct 27 15:25:55 MSK 2023
User: mishev
Spectrometer: MAYP115646
Trigger mode: 0
Integration Time (sec): 5,000000E-2
Scans to average: 1
Electric dark correction enabled: true
Nonlinearity correction enabled: false
Boxcar width: 0
XAxis mode: Wavelengths
Number of Pixels in Spectrum: 2068
>>>>>Begin Spectral Data<<<<<
199,511	5,17
199,981	0,17
200,452	3,17
200,923	-2,83
201,394	4,17
201,865	1,17
202,335	8,17
202,806	0,17
203,277	10,17
203,748	4,17
204,218	-2,83
204,689	9,17
205,159	2,17
205,63	-5,83
206,101	7,17
206,571	5,17
207,042	1,17
207,512	12,17
207,983	4,17
208,453	7,17
208,923	-0,83
209,394	6,17
209,864	5,17
210,335	1,17
210,805	6,17
211,275	3,17
211,745	-0,83
212,216	5,17
212,686	9,17
213,156	14,17
213,626	3,17
214,096	10,17
214,566	-0,83
215,037	16,17
215,507	-3,83
215,977	-2,83
216,447	9,17
216,917	-2,83
217,387	4,17
217,857	9,17
218,326	-8,83
218,796	3,17
219,266	4,17
219,736	-2,83
220,206	8,17
220,676	-2,83
221,145	6,17
221,615	1,17
222,085	2,17
222,555	-4,83
223,024	11,17
223,494	14,17
223,964	10,17
224,433	7,17
224,903	27,17
225,372	-0,83
225,842	-4,83
226,311	1,17
226,781	5,17
227,25	2,17
227,72	14,17
228,189	3,17
228,658	0,17
229,128	4,17
229,597	7,17
230,066	11,17
230,536	3,17
231,005	1,17
231,474	23,17
231,943	-2,83
232,412	6,17
232,881	-5,83
233,351	12,17
233,82	-7,83
234,289	8,17
234,758	-1,83
235,227	0,17
235,696	8,17
236,165	3,17
236,634	-4,83
237,103	-1,83
237,572	2,17
238,04	2,17
238,509	-3,83
238,978	-3,83
239,447	-0,83
239,916	-0,83
240,384	0,17
240,853	10,17
241,322	-3,83
241,79	-1,83
242,259	12,17
242,728	4,17
243,196	8,17
243,665	12,17
244,133	-6,83
244,602	-2,83
245,07	6,17
245,539	4,17
246,007	-1,83
246,476	2,17
246,944	0,17
247,413	-8,83
247,881	7,17
248,349	2,17
248,817	12,17
249,286	4,17
249,754	5,17
250,222	-1,83
250,69	14,17
251,159	6,17
251,627	11,17
252,095	0,17
252,563	-2,83
253,031	2,17
253,499	10,17
253,967	6,17
254,435	1,17
254,903	1,17
255,371	0,17
255,839	10,17
256,307	4,17
256,775	-11,83
257,242	-0,83
257,71	12,17
258,178	-2,83
258,646	-8,83
259,114	8,17
259,581	-1,83
260,049	-3,83
260,517	-2,83
260,984	17,17
261,452	-1,83
261,919	12,17
262,387	8,17
262,855	11,17
263,322	16,17
263,79	11,17
264,257	14,17
264,724	-1,83
265,192	-0,83
265,659	-1,83
266,127	-9,83
266,594	5,17
267,061	19,17
267,529	-0,83
267,996	12,17
268,463	14,17
268,93	4,17
269,397	-3,83
269,865	7,17
270,332	5,17
270,799	4,17
271,266	0,17
271,733	2,17
272,2	3,17
272,667	6,17
273,134	6,17
273,601	-1,83
274,068	5,17
274,535	6,17
275,002	7,17
275,469	3,17
275,935	9,17
276,402	-1,83
276,869	0,17
277,336	3,17
277,802	1,17
278,269	12,17
278,736	-0,83
279,203	10,17
279,669	2,17
280,136	-1,83
280,602	4,17
281,069	-12,83
281,535	-3,83
282,002	4,17
282,468	-2,83
282,935	-5,83
283,401	-8,83
283,868	0,17
284,334	-14,83
284,8	1,17
285,267	3,17
285,733	6,17
286,199	0,17
286,666	-0,83
287,132	7,17
287,598	6,17
288,064	-7,83
288,53	6,17
288,996	2,17
289,463	0,17
289,929	1,17
290,395	-2,83
290,861	-5,83
291,327	6,17
291,793	0,17
292,259	-15,83
292,725	-6,83
293,19	8,17
293,656	0,17
294,122	-9,83
294,588	-3,83
295,054	18,17
295,52	9,17
295,985	0,17
296,451	4,17
296,917	4,17
297,382	1,17
297,848	0,17
298,314	2,17
298,779	13,17
299,245	14,17
299,71	13,17
300,176	3,17
300,641	-3,83
301,107	-4,83
301,572	4,17
302,038	10,17
302,503	5,17
302,968	6,17
303,434	-2,83
303,899	-4,83
304,364	6,17
304,83	5,17
305,295	9,17
305,76	2,17
306,225	12,17
306,69	-5,83
307,156	2,17
307,621	17,17
308,086	2,17
308,551	-4,83
309,016	-6,83
309,481	4,17
309,946	9,17
310,411	-0,83
310,876	7,17
311,341	-0,83
311,806	15,17
312,27	3,17
312,735	-2,83
313,2	-1,83
313,665	-2,83
314,13	3,17
314,594	6,17
315,059	13,17
315,524	9,17
315,988	-13,83
316,453	8,17
316,918	5,17
317,382	-2,83
317,847	-1,83
318,311	10,17
318,776	5,17
319,24	2,17
319,705	6,17
320,169	5,17
320,634	-13,83
321,098	8,17
321,562	11,17
322,027	-1,83
322,491	4,17
322,955	2,17
323,419	-1,83
323,884	-12,83
324,348	4,17
324,812	3,17
325,276	7,17
325,74	9,17
326,204	-0,83
326,668	-6,83
327,132	11,17
327,596	4,17
328,06	12,17
328,524	3,17
328,988	2,17
329,452	1,17
329,916	7,17
330,38	4,17
330,844	5,17
331,308	-5,83
331,771	6,17
332,235	14,17
332,699	-2,83
333,163	6,17
333,626	7,17
334,09	7,17
334,554	4,17
335,017	15,17
335,481	-0,83
335,944	4,17
336,408	3,17
336,871	11,17
337,335	10,17
337,798	10,17
338,262	17,17
338,725	2,17
339,188	-7,83
339,652	0,17
340,115	-8,83
340,578	-8,83
341,042	0,17
341,505	5,17
341,968	2,17
342,431	16,17
342,895	5,17
343,358	-6,83
343,821	-10,83
344,284	-2,83
344,747	1,17
345,21	8,17
345,673	1,17
346,136	11,17
346,599	-2,83
347,062	-1,83
347,525	11,17
347,988	1,17
348,451	2,17
348,913	4,17
349,376	3,17
349,839	0,17
350,302	8,17
350,765	4,17
351,227	1,17
351,69	3,17
352,153	2,17
352,615	-7,83
353,078	14,17
353,54	1,17
354,003	0,17
354,465	-0,83
354,928	-9,83
355,39	0,17
355,853	-9,83
356,315	-11,83
356,778	-4,83
357,24	0,17
357,702	10,17
358,165	0,17
358,627	4,17
359,089	8,17
359,552	-4,83
360,014	4,17
360,476	-8,83
360,938	-0,83
361,4	9,17
361,862	11,17
362,325	5,17
362,787	9,17
363,249	-9,83
363,711	14,17
364,173	-17,83
364,635	3,17
365,097	-4,83
365,558	-6,83
366,02	-0,83
366,482	1,17
366,944	13,17
367,406	8,17
367,868	4,17
368,329	4,17
368,791	10,17
369,253	0,17
369,714	2,17
370,176	1,17
370,638	15,17
371,099	10,17
371,561	2,17
372,022	6,17
372,484	-10,83
372,945	1,17
373,407	9,17
373,868	5,17
374,33	-1,83
374,791	-7,83
375,253	14,17
375,714	4,17
376,175	-1,83
376,637	2,17
377,098	2,17
377,559	7,17
378,02	-14,83
378,481	-5,83
378,943	2,17
379,404	-6,83
379,865	7,17
380,326	9,17
380,787	2,17
381,248	-2,83
381,709	-0,83
382,17	17,17
382,631	-10,83
383,092	24,17
383,553	6,17
384,014	4,17
384,474	0,17
384,935	5,17
385,396	4,17
385,857	11,17
386,318	2,17
386,778	14,17
387,239	10,17
387,7	4,17
388,16	1,17
388,621	-6,83
389,082	-0,83
389,542	9,17
390,003	0,17
390,463	1,17
390,924	-0,83
391,384	6,17
391,845	-1,83
392,305	13,17
392,765	16,17
393,226	-6,83
393,686	0,17
394,146	4,17
394,607	5,17
395,067	4,17
395,527	2,17
395,987	4,17
396,447	-3,83
396,908	4,17
397,368	12,17
397,828	8,17
398,288	13,17
398,748	0,17
399,208	-2,83
399,668	-7,83
400,128	5,17
400,588	8,17
401,048	-1,83
401,508	9,17
401,968	-11,83
402,427	-4,83
402,887	-10,83
403,347	-6,83
403,807	7,17
404,266	3,17
404,726	-4,83
405,186	11,17
405,645	11,17
406,105	-0,83
406,565	23,17
407,024	6,17
407,484	-1,83
407,943	-1,83
408,403	9,17
408,862	-1,83
409,322	16,17
409,781	-12,83
410,241	-10,83
410,7	0,17
411,159	4,17
411,619	5,17
412,078	-13,83
412,537	8,17
412,996	16,17
413,456	19,17
413,915	8,17
414,374	57,17
414,833	16,17
415,292	4,17
415,751	24,17
416,21	17,17
416,669	10,17
417,128	20,17
417,587	-37,83
418,046	12,17
418,505	-1,83
418,964	0,17
419,423	-9,83
419,882	20,17
420,341	-8,83
420,799	45,17
421,258	58,17
421,717	-23,83
422,176	26,17
422,634	31,17
423,093	-12,83
423,552	-7,83
424,01	-15,83
424,469	17,17
424,927	44,17
425,386	-20,83
425,844	25,17
426,303	69,17
426,761	12,17
427,22	-61,83
427,678	-64,83
428,137	73,17
428,595	6,17
429,053	-19,83
429,512	94,17
429,97	82,17
430,428	63,17
430,886	78,17
431,344	10,17
431,803	145,17
432,261	129,17
432,719	48,17
433,177	185,17
433,635	29,17
434,093	14,17
434,551	150,17
435,009	12,17
435,467	69,17
435,925	233,17
436,383	63,17
436,841	163,17
437,299	93,17
437,756	252,17
438,214	216,17
438,672	102,17
439,13	182,17
439,587	277,17
440,045	38,17
440,503	167,17
440,96	240,17
441,418	239,17
441,876	60,17
442,333	112,17
442,791	130,17
443,248	284,17
443,706	304,17
444,163	251,17
444,621	338,17
445,078	383,17
445,535	178,17
445,993	257,17
446,45	316,17
446,907	276,17
447,365	213,17
447,822	212,17
448,279	407,17
448,736	395,17
449,193	414,17
449,651	348,17
450,108	406,17
450,565	215,17
451,022	214,17
451,479	487,17
451,936	281,17
452,393	402,17
452,85	542,17
453,307	198,17
453,764	116,17
454,221	437,17
454,677	297,17
455,134	331,17
455,591	291,17
456,048	28,17
456,505	287,17
456,961	82,17
457,418	408,17
457,875	338,17
458,331	293,17
458,788	132,17
459,244	317,17
459,701	158,17
460,158	188,17
460,614	200,17
461,071	218,17
461,527	234,17
461,983	188,17
462,44	138,17
462,896	43,17
463,353	290,17
463,809	151,17
464,265	60,17
464,721	131,17
465,178	138,17
465,634	101,17
466,09	46,17
466,546	206,17
467,002	156,17
467,458	97,17
467,915	74,17
468,371	75,17
468,827	58,17
469,283	76,17
469,739	205,17
470,195	77,17
470,651	34,17
471,106	140,17
471,562	98,17
472,018	145,17
472,474	161,17
472,93	167,17
473,386	85,17
473,841	54,17
474,297	64,17
474,753	129,17
475,208	116,17
475,664	107,17
476,12	136,17
476,575	73,17
477,031	56,17
477,486	155,17
477,942	88,17
478,397	35,17
478,853	124,17
479,308	104,17
479,763	216,17
480,219	59,17
480,674	92,17
481,13	85,17
481,585	45,17
482,04	9,17
482,495	121,17
482,951	72,17
483,406	93,17
483,861	49,17
484,316	-13,83
484,771	37,17
485,226	98,17
485,681	-28,83
486,136	99,17
486,591	171,17
487,046	40,17
487,501	67,17
487,956	119,17
488,411	139,17
488,866	128,17
489,321	181,17
489,775	113,17
490,23	-50,83
490,685	68,17
491,14	62,17
491,594	90,17
492,049	102,17
492,504	95,17
492,958	147,17
493,413	69,17
493,868	52,17
494,322	52,17
494,777	90,17
495,231	117,17
495,686	132,17
496,14	51,17
496,594	26,17
497,049	62,17
497,503	90,17
497,958	151,17
498,412	146,17
498,866	235,17
499,32	342,17
499,775	190,17
500,229	130,17
500,683	127,17
501,137	232,17
501,591	224,17
502,045	126,17
502,499	131,17
502,953	108,17
503,407	265,17
503,861	32,17
504,315	126,17
504,769	180,17
505,223	207,17
505,677	167,17
506,131	212,17
506,585	322,17
507,039	134,17
507,492	224,17
507,946	57,17
508,4	76,17
508,854	294,17
509,307	247,17
509,761	177,17
510,214	216,17
510,668	193,17
511,122	-11,83
511,575	211,17
512,029	174,17
512,482	106,17
512,936	88,17
513,389	218,17
513,842	232,17
514,296	171,17
514,749	182,17
515,202	286,17
515,656	115,17
516,109	286,17
516,562	101,17
517,015	233,17
517,469	105,17
517,922	280,17
518,375	264,17
518,828	211,17
519,281	168,17
519,734	254,17
520,187	170,17
520,64	334,17
521,093	297,17
521,546	160,17
521,999	291,17
522,452	311,17
522,905	260,17
523,358	225,17
523,81	372,17
524,263	260,17
524,716	51,17
525,169	363,17
525,621	200,17
526,074	288,17
526,527	310,17
526,979	237,17
527,432	273,17
527,884	193,17
528,337	152,17
528,789	190,17
529,242	193,17
529,694	262,17
530,147	221,17
530,599	103,17
531,052	238,17
531,504	275,17
531,956	262,17
532,409	142,17
532,861	186,17
533,313	203,17
533,765	199,17
534,218	160,17
534,67	130,17
535,122	193,17
535,574	131,17
536,026	156,17
536,478	190,17
536,93	99,17
537,382	320,17
537,834	375,17
538,286	258,17
538,738	362,17
539,19	-10,83
539,642	147,17
540,094	311,17
540,545	403,17
540,997	210,17
541,449	88,17
541,901	221,17
542,352	257,17
542,804	222,17
543,256	74,17
543,707	331,17
544,159	324,17
544,611	180,17
545,062	79,17
545,514	281,17
545,965	175,17
546,417	172,17
546,868	163,17
547,319	122,17
547,771	277,17
548,222	221,17
548,674	279,17
549,125	216,17
549,576	245,17
550,027	188,17
550,479	81,17
550,93	187,17
551,381	331,17
551,832	267,17
552,283	327,17
552,734	265,17
553,185	197,17
553,636	163,17
554,087	312,17
554,538	248,17
554,989	150,17
555,44	156,17
555,891	101,17
556,342	165,17
556,793	125,17
557,244	206,17
557,694	359,17
558,145	187,17
558,596	223,17
559,047	276,17
559,497	156,17
559,948	184,17
560,399	170,17
560,849	327,17
561,3	167,17
561,75	204,17
562,201	162,17
562,651	342,17
563,102	285,17
563,552	355,17
564,003	120,17
564,453	65,17
564,903	258,17
565,354	151,17
565,804	273,17
566,254	128,17
566,705	18,17
567,155	112,17
567,605	143,17
568,055	196,17
568,505	258,17
568,955	236,17
569,405	233,17
569,856	175,17
570,306	191,17
570,756	323,17
571,206	291,17
571,656	199,17
572,105	202,17
572,555	186,17
573,005	221,17
573,455	100,17
573,905	147,17
574,355	93,17
574,804	81,17
575,254	232,17
575,704	276,17
576,154	232,17
576,603	124,17
577,053	247,17
577,502	124,17
577,952	263,17
578,402	145,17
578,851	157,17
579,301	49,17
579,75	168,17
580,199	201,17
580,649	160,17
581,098	226,17
581,548	254,17
581,997	219,17
582,446	215,17
582,895	74,17
583,345	160,17
583,794	168,17
584,243	65,17
584,692	289,17
585,141	187,17
585,591	235,17
586,04	270,17
586,489	123,17
586,938	256,17
587,387	216,17
587,836	139,17
588,285	123,17
588,734	64,17
589,182	53,17
589,631	176,17
590,08	149,17
590,529	187,17
590,978	274,17
591,426	148,17
591,875	156,17
592,324	218,17
592,773	150,17
593,221	74,17
593,67	144,17
594,118	202,17
594,567	153,17
595,016	288,17
595,464	185,17
595,913	26,17
596,361	258,17
596,809	244,17
597,258	185,17
597,706	230,17
598,155	168,17
598,603	195,17
599,051	244,17
599,499	143,17
599,948	201,17
600,396	296,17
600,844	208,17
601,292	226,17
601,74	296,17
602,188	163,17
602,636	290,17
603,085	158,17
603,533	251,17
603,981	85,17
604,429	287,17
604,876	57,17
605,324	101,17
605,772	165,17
606,22	118,17
606,668	194,17
607,116	206,17
607,563	215,17
608,011	169,17
608,459	145,17
608,907	123,17
609,354	211,17
609,802	286,17
610,25	227,17
610,697	234,17
611,145	258,17
611,592	332,17
612,04	-43,83
612,487	228,17
612,935	64,17
613,382	281,17
613,829	177,17
614,277	108,17
614,724	272,17
615,171	175,17
615,619	217,17
616,066	337,17
616,513	168,17
616,96	144,17
617,408	266,17
617,855	204,17
618,302	216,17
618,749	288,17
619,196	191,17
619,643	228,17
620,09	135,17
620,537	258,17
620,984	145,17
621,431	75,17
621,878	264,17
622,325	54,17
622,771	133,17
623,218	94,17
623,665	178,17
624,112	258,17
624,559	211,17
625,005	158,17
625,452	237,17
625,899	103,17
626,345	287,17
626,792	63,17
627,238	175,17
627,685	139,17
628,131	152,17
628,578	204,17
629,024	18,17
629,471	103,17
629,917	139,17
630,364	177,17
630,81	194,17
631,256	181,17
631,703	149,17
632,149	186,17
632,595	127,17
633,041	117,17
633,487	26,17
633,934	119,17
634,38	94,17
634,826	259,17
635,272	95,17
635,718	237,17
636,164	65,17
636,61	204,17
637,056	193,17
637,502	198,17
637,948	192,17
638,394	247,17
638,839	187,17
639,285	152,17
639,731	96,17
640,177	159,17
640,623	89,17
641,068	123,17
641,514	229,17
641,96	94,17
642,405	70,17
642,851	152,17
643,296	104,17
643,742	185,17
644,187	66,17
644,633	148,17
645,078	90,17
645,524	141,17
645,969	217,17
646,415	-20,83
646,86	180,17
647,305	128,17
647,751	228,17
648,196	230,17
648,641	167,17
649,086	15,17
649,532	48,17
649,977	211,17
650,422	95,17
650,867	249,17
651,312	58,17
651,757	128,17
652,202	164,17
652,647	126,17
653,092	122,17
653,537	129,17
653,982	155,17
654,427	159,17
654,872	89,17
655,316	124,17
655,761	62,17
656,206	204,17
656,651	98,17
657,096	89,17
657,54	101,17
657,985	83,17
658,43	126,17
658,874	74,17
659,319	146,17
659,763	193,17
660,208	128,17
660,652	118,17
661,097	56,17
661,541	144,17
661,986	274,17
662,43	121,17
662,874	62,17
663,319	108,17
663,763	126,17
664,207	113,17
664,651	151,17
665,096	78,17
665,54	138,17
665,984	51,17
666,428	182,17
666,872	169,17
667,316	183,17
667,76	94,17
668,204	164,17
668,648	129,17
669,092	143,17
669,536	200,17
669,98	99,17
670,424	137,17
670,868	111,17
671,312	119,17
671,756	122,17
672,199	159,17
672,643	102,17
673,087	171,17
673,531	210,17
673,974	170,17
674,418	53,17
674,862	185,17
675,305	133,17
675,749	127,17
676,192	112,17
676,636	141,17
677,079	243,17
677,523	163,17
677,966	164,17
678,409	269,17
678,853	61,17
679,296	200,17
679,739	193,17
680,183	179,17
680,626	310,17
681,069	226,17
681,512	354,17
681,955	314,17
682,399	345,17
682,842	314,17
683,285	412,17
683,728	427,17
684,171	432,17
684,614	594,17
685,057	555,17
685,5	718,17
685,943	767,17
686,386	721,17
686,828	783,17
687,271	929,17
687,714	1005,17
688,157	1126,17
688,6	1160,17
689,042	1158,17
689,485	1257,17
689,928	1228,17
690,37	1448,17
690,813	1389,17
691,255	1557,17
691,698	1554,17
692,141	1557,17
692,583	1629,17
693,025	1710,17
693,468	1642,17
693,91	1650,17
694,353	1619,17
694,795	1720,17
695,237	1675,17
695,68	1555,17
696,122	1663,17
696,564	1490,17
697,006	1548,17
697,449	1337,17
697,891	1326,17
698,333	1238,17
698,775	1319,17
699,217	1230,17
699,659	1064,17
700,101	1130,17
700,543	934,17
700,985	1002,17
701,427	907,17
701,869	876,17
702,311	785,17
702,753	710,17
703,195	679,17
703,636	618,17
704,078	644,17
704,52	604,17
704,962	540,17
705,403	460,17
705,845	476,17
706,286	403,17
706,728	412,17
707,17	430,17
707,611	378,17
708,053	273,17
708,494	310,17
708,936	328,17
709,377	280,17
709,819	266,17
710,26	308,17
710,701	196,17
711,143	233,17
711,584	235,17
712,025	196,17
712,466	194,17
712,908	213,17
713,349	201,17
713,79	132,17
714,231	170,17
714,672	203,17
715,113	147,17
715,554	109,17
715,995	177,17
716,436	113,17
716,877	151,17
717,318	155,17
717,759	152,17
718,2	125,17
718,641	110,17
719,082	127,17
719,522	87,17
719,963	90,17
720,404	82,17
720,844	75,17
721,285	80,17
721,726	121,17
722,166	82,17
722,607	57,17
723,048	77,17
723,488	64,17
723,929	58,17
724,369	30,17
724,81	70,17
725,25	49,17
725,69	61,17
726,131	50,17
726,571	38,17
727,011	82,17
727,452	32,17
727,892	32,17
728,332	35,17
728,772	35,17
729,212	20,17
729,653	20,17
730,093	41,17
730,533	28,17
730,973	1,17
731,413	-3,83
731,853	1,17
732,293	-6,83
732,733	36,17
733,173	44,17
733,613	3,17
734,052	8,17
734,492	4,17
734,932	-5,83
735,372	-0,83
735,812	3,17
736,251	14,17
736,691	1,17
737,131	-24,83
737,57	13,17
738,01	8,17
738,449	11,17
738,889	12,17
739,329	13,17
739,768	-0,83
740,208	-7,83
740,647	6,17
741,086	-3,83
741,526	6,17
741,965	3,17
742,404	-5,83
742,844	-4,83
743,283	-23,83
743,722	-4,83
744,161	-3,83
744,601	-16,83
745,04	16,17
745,479	4,17
745,918	35,17
746,357	2,17
746,796	-25,83
747,235	16,17
747,674	-0,83
748,113	0,17
748,552	-14,83
748,991	10,17
749,43	0,17
749,869	5,17
750,307	-7,83
750,746	4,17
751,185	18,17
751,624	-4,83
752,062	-9,83
752,501	3,17
752,94	2,17
753,378	-6,83
753,817	13,17
754,255	-14,83
754,694	17,17
755,132	3,17
755,571	4,17
756,009	11,17
756,448	-10,83
756,886	-4,83
757,325	-8,83
757,763	-7,83
758,201	-3,83
758,639	13,17
759,078	4,17
759,516	4,17
759,954	4,17
760,392	23,17
760,83	-0,83
761,268	-17,83
761,707	8,17
762,145	-13,83
762,583	6,17
763,021	3,17
763,459	19,17
763,896	-21,83
764,334	10,17
764,772	-6,83
765,21	-5,83
765,648	-14,83
766,086	-12,83
766,524	13,17
766,961	-2,83
767,399	-6,83
767,837	12,17
768,274	7,17
768,712	13,17
769,149	-26,83
769,587	12,17
770,025	0,17
770,462	0,17
770,9	-13,83
771,337	-6,83
771,774	6,17
772,212	-7,83
772,649	1,17
773,087	2,17
773,524	-8,83
773,961	-13,83
774,398	20,17
774,836	-20,83
775,273	-3,83
775,71	14,17
776,147	-3,83
776,584	12,17
777,021	-14,83
777,458	6,17
777,895	-5,83
778,332	1,17
778,769	2,17
779,206	14,17
779,643	6,17
780,08	-16,83
780,517	2,17
780,954	-13,83
781,391	0,17
781,827	11,17
782,264	-17,83
782,701	1,17
783,137	-3,83
783,574	8,17
784,011	1,17
784,447	-2,83
784,884	-1,83
785,32	-2,83
785,757	-0,83
786,193	0,17
786,63	5,17
787,066	3,17
787,503	8,17
787,939	20,17
788,375	-15,83
788,812	-1,83
789,248	-5,83
789,684	-5,83
790,12	-0,83
790,557	24,17
790,993	-7,83
791,429	3,17
791,865	-11,83
792,301	5,17
792,737	13,17
793,173	-10,83
793,609	1,17
794,045	2,17
794,481	-0,83
794,917	8,17
795,353	0,17
795,789	-7,83
796,225	7,17
796,66	7,17
797,096	8,17
797,532	-0,83
797,968	11,17
798,403	-2,83
798,839	-4,83
799,275	3,17
799,71	1,17
800,146	-0,83
800,581	3,17
801,017	-5,83
801,452	-0,83
801,888	-9,83
802,323	1,17
802,759	-5,83
803,194	2,17
803,629	-1,83
804,065	11,17
804,5	1,17
804,935	7,17
805,37	-10,83
805,806	11,17
806,241	8,17
806,676	-4,83
807,111	1,17
807,546	-4,83
807,981	10,17
808,416	14,17
808,851	18,17
809,286	10,17
809,721	4,17
810,156	-9,83
810,591	-2,83
811,026	16,17
811,46	1,17
811,895	-10,83
812,33	-9,83
812,765	0,17
813,199	10,17
813,634	0,17
814,069	2,17
814,503	3,17
814,938	3,17
815,373	9,17
815,807	12,17
816,242	-8,83
816,676	10,17
817,111	10,17
817,545	8,17
817,979	1,17
818,414	19,17
818,848	-14,83
819,282	20,17
819,717	-4,83
820,151	1,17
820,585	10,17
821,019	-6,83
821,453	6,17
821,888	6,17
822,322	2,17
822,756	11,17
823,19	-1,83
823,624	-14,83
824,058	11,17
824,492	2,17
824,926	4,17
825,36	4,17
825,794	5,17
826,227	4,17
826,661	-2,83
827,095	-16,83
827,529	-16,83
827,962	3,17
828,396	-0,83
828,83	5,17
829,263	0,17
829,697	0,17
830,131	0,17
830,564	0,17
830,998	-0,83
831,431	4,17
831,865	9,17
832,298	4,17
832,732	-1,83
833,165	-4,83
833,598	0,17
834,032	-7,83
834,465	8,17
834,898	1,17
835,331	7,17
835,765	-7,83
836,198	12,17
836,631	7,17
837,064	-8,83
837,497	5,17
837,93	6,17
838,363	0,17
838,796	-3,83
839,229	-2,83
839,662	1,17
840,095	14,17
840,528	-10,83
840,961	-10,83
841,394	17,17
841,827	-4,83
842,259	-0,83
842,692	-13,83
843,125	3,17
843,558	7,17
843,99	0,17
844,423	5,17
844,855	4,17
845,288	6,17
845,721	3,17
846,153	4,17
846,586	17,17
847,018	5,17
847,45	-5,83
847,883	2,17
848,315	1,17
848,748	-2,83
849,18	3,17
849,612	13,17
850,044	15,17
850,477	7,17
850,909	-7,83
851,341	-3,83
851,773	-4,83
852,205	7,17
852,637	22,17
853,069	-7,83
853,501	6,17
853,933	4,17
854,365	11,17
854,797	8,17
855,229	5,17
855,661	-11,83
856,093	18,17
856,525	-4,83
856,957	9,17
857,388	-1,83
857,82	-6,83
858,252	9,17
858,683	4,17
859,115	2,17
859,547	13,17
859,978	5,17
860,41	4,17
860,841	6,17
861,273	10,17
861,704	-18,83
862,136	6,17
862,567	-5,83
862,999	10,17
863,43	-2,83
863,861	3,17
864,293	8,17
864,724	0,17
865,155	-3,83
865,586	9,17
866,017	-5,83
866,449	17,17
866,88	0,17
867,311	-9,83
867,742	10,17
868,173	10,17
868,604	-2,83
869,035	5,17
869,466	0,17
869,897	-4,83
870,328	12,17
870,759	5,17
871,189	1,17
871,62	3,17
872,051	-1,83
872,482	-9,83
872,912	11,17
873,343	0,17
873,774	9,17
874,204	-14,83
874,635	4,17
875,066	-8,83
875,496	-2,83
875,927	-12,83
876,357	1,17
876,788	9,17
877,218	7,17
877,648	-2,83
878,079	-2,83
878,509	17,17
878,939	0,17
879,37	10,17
879,8	-6,83
880,23	-9,83
880,66	13,17
881,091	0,17
881,521	-1,83
881,951	1,17
882,381	-3,83
882,811	4,17
883,241	6,17
883,671	-0,83
884,101	7,17
884,531	5,17
884,961	5,17
885,391	-6,83
885,82	-0,83
886,25	20,17
886,68	-9,83
887,11	-1,83
887,539	0,17
887,969	0,17
888,399	0,17
888,828	-4,83
889,258	-6,83
889,688	8,17
890,117	-6,83
890,547	12,17
890,976	-2,83
891,406	-1,83
891,835	15,17
892,264	0,17
892,694	0,17
893,123	0,17
893,553	16,17
893,982	3,17
894,411	-2,83
894,84	7,17
895,269	9,17
895,699	1,17
896,128	1,17
896,557	3,17
896,986	8,17
897,415	4,17
897,844	17,17
898,273	16,17
898,702	7,17
899,131	-1,83
899,56	7,17
899,989	8,17
900,418	-1,83
900,846	5,17
901,275	1,17
901,704	-1,83
902,133	2,17
902,561	3,17
902,99	7,17
903,419	-7,83
903,847	9,17
904,276	5,17
904,704	-8,83
905,133	4,17
905,561	17,17
905,99	5,17
906,418	8,17
906,847	3,17
907,275	-0,83
907,704	10,17
908,132	0,17
908,56	3,17
908,988	0,17
909,417	1,17
909,845	-1,83
910,273	12,17
910,701	8,17
911,129	1,17
911,557	10,17
911,985	11,17
912,413	-0,83
912,841	9,17
913,269	7,17
913,697	8,17
914,125	8,17
914,553	2,17
914,981	17,17
915,409	-8,83
915,837	8,17
916,264	3,17
916,692	3,17
917,12	11,17
917,547	13,17
917,975	9,17
918,403	-3,83
918,83	5,17
919,258	1,17
919,685	4,17
920,113	10,17
920,54	5,17
920,968	-8,83
921,395	2,17
921,823	-7,83
922,25	-0,83
922,677	4,17
923,104	10,17
923,532	8,17
923,959	-1,83
924,386	9,17
924,813	4,17
925,24	23,17
925,668	9,17
926,095	2,17
926,522	-1,83
926,949	7,17
927,376	3,17
927,803	8,17
928,23	-1,83
928,657	7,17
929,083	9,17
929,51	4,17
929,937	1,17
930,364	2,17
930,791	-1,83
931,217	8,17
931,644	4,17
932,071	-4,83
932,497	8,17
932,924	10,17
933,351	8,17
933,777	1,17
934,204	28,17
934,63	-8,83
935,057	5,17
935,483	3,17
935,909	4,17
936,336	11,17
936,762	2,17
937,188	2,17
937,615	7,17
938,041	9,17
938,467	10,17
938,893	-0,83
939,32	1,17
939,746	4,17
940,172	0,17
940,598	-5,83
941,024	12,17
941,45	11,17
941,876	4,17
942,302	14,17
942,728	0,17
943,154	-8,83
943,58	17,17
944,005	-1,83
944,431	3,17
944,857	2,17
945,283	13,17
945,709	2,17
946,134	-6,83
946,56	7,17
946,986	15,17
947,411	14,17
947,837	-4,83
948,262	3,17
948,688	-2,83
949,113	4,17
949,539	5,17
949,964	6,17
950,39	17,17
950,815	-1,83
951,24	11,17
951,666	1,17
952,091	5,17
952,516	11,17
952,941	4,17
953,367	1,17
953,792	12,17
954,217	13,17
954,642	-8,83
955,067	8,17
955,492	7,17
955,917	-0,83
956,342	8,17
956,767	6,17
957,192	12,17
957,617	-9,83
958,042	4,17
958,466	3,17
958,891	15,17
959,316	-7,83
959,741	11,17
960,166	-1,83
960,59	-6,83
961,015	3,17
961,439	1,17
961,864	1,17
962,289	-11,83
962,713	11,17
963,138	4,17
963,562	11,17
963,987	-16,83
964,411	4,17
964,835	1,17
965,26	2,17
965,684	6,17
966,108	1,17
966,533	13,17
966,957	-0,83
967,381	10,17
967,805	2,17
968,229	2,17
968,654	-0,83
969,078	-7,83
969,502	3,17
969,926	6,17
970,35	-3,83
970,774	-3,83
971,198	9,17
971,622	4,17
972,045	8,17
972,469	13,17
972,893	9,17
973,317	7,17
973,741	4,17
974,164	4,17
974,588	-8,83
975,012	1,17
975,435	-4,83
975,859	2,17
976,283	-2,83
976,706	5,17
977,13	6,17
977,553	2,17
977,977	16,17
978,4	-0,83
978,824	10,17
979,247	2,17
979,67	0,17
980,094	0,17
980,517	-6,83
980,94	5,17
981,363	4,17
981,786	-4,83
982,21	1,17
982,633	-6,83
983,056	6,17
983,479	6,17
983,902	3,17
984,325	2,17
984,748	8,17
985,171	6,17
985,594	2,17
986,017	-0,83
986,44	8,17
986,863	-2,83
987,285	-0,83
987,708	5,17
988,131	1,17
988,554	-0,83
988,976	7,17
989,399	16,17
989,822	8,17
990,244	12,17
990,667	4,17
991,089	-3,83
991,512	11,17
991,934	13,17
992,357	-8,83
992,779	7,17
993,201	2,17
993,624	-2,83
994,046	-2,83
994,468	9,17
994,891	-2,83
995,313	1,17
995,735	-7,83
996,157	4,17
996,579	0,17
997,002	6,17
997,424	5,17
997,846	-7,83
998,268	1,17
998,69	13,17
999,112	-2,83
999,534	-1,83
999,956	9,17
1000,377	-8,83
1000,799	1,17
1001,221	20,17
1001,643	-5,83
1002,065	1,17
1002,486	-2,83
1002,908	2,17
1003,33	8,17
1003,751	2,17
1004,173	0,17
1004,595	-1,83
1005,016	5,17
1005,438	6,17
1005,859	5,17
1006,281	-5,83
1006,702	4,17
1007,123	-5,83
1007,545	-0,83
1007,966	6,17
1008,387	2,17
1008,809	-0,83
1009,23	0,17
1009,651	1,17
1010,072	0,17
1010,494	0,17
1010,915	5,17
1011,336	-4,83
1011,757	14,17
1012,178	21,17
1012,599	4,17
1013,02	9,17
1013,441	3,17
1013,862	13,17
1014,283	-1,83
1014,703	11,17
1015,124	2,17
1015,545	-3,83
1015,966	-0,83
1016,387	2,17
1016,807	-2,83
1017,228	-1,83
1017,649	-8,83
1018,069	-9,83
1018,49	1,17
1018,91	-4,83
1019,331	12,17
1019,751	7,17
1020,172	-6,83
1020,592	1,17
1021,013	4,17
1021,433	17,17
1021,853	4,17
1022,274	4,17
1022,694	-2,83
1023,114	0,17
1023,535	9,17
1023,955	7,17
1024,375	-9,83
1024,795	-1,83
1025,215	8,17
1025,635	2,17
1026,055	0,17
1026,475	7,17
1026,895	-0,83
1027,315	8,17
1027,735	-2,83
1028,155	2,17
1028,575	4,17
1028,995	-0,83
1029,414	-7,83
1029,834	9,17
1030,254	4,17
1030,674	7,17
1031,093	5,17
1031,513	1,17
1031,933	5,17
1032,352	2,17
1032,772	6,17
1033,191	-3,83
1033,611	2,17
1034,03	3,17
1034,45	12,17
1034,869	1,17
1035,289	8,17
1035,708	18,17
1036,127	-11,83
1036,546	-7,83
1036,966	0,17
1037,385	13,17
1037,804	6,17
1038,223	0,17
1038,642	-7,83
1039,062	2,17
1039,481	-8,83
1039,9	-3,83
1040,319	-0,83
1040,738	-12,83
1041,157	8,17
1041,576	10,17
1041,994	10,17
1042,413	-5,83
1042,832	4,17
1043,251	0,17
1043,67	3,17
1044,088	9,17
1044,507	-0,83
1044,926	-5,83
1045,345	16,17
1045,763	-0,83
1046,182	9,17
1046,6	-1,83
1047,019	0,17
1047,437	-2,83
1047,856	14,17
1048,274	-3,83
1048,693	-2,83
1049,111	-1,83
1049,529	3,17
1049,948	-1,83
1050,366	1,17
1050,784	-3,83
1051,202	7,17
1051,621	-7,83
1052,039	3,17
1052,457	6,17
1052,875	3,17
1053,293	0,17
1053,711	1,17
1054,129	1,17
1054,547	15,17
1054,965	8,17
1055,383	4,17
1055,801	9,17
1056,219	-0,83
1056,637	-2,83
1057,054	10,17
1057,472	1,17
1057,89	3,17
1058,308	-5,83
1058,725	13,17
1059,143	11,17
1059,561	-1,83
1059,978	-0,83
1060,396	19,17
1060,813	1,17
1061,231	20,17
1061,648	7,17
1062,066	7,17
1062,483	1,17
1062,9	5,17
1063,318	12,17
1063,735	4,17
1064,152	7,17
1064,57	3,17
1064,987	-4,83
1065,404	0,17
1065,821	9,17
1066,238	9,17
1066,655	2,17
1067,073	-5,83
1067,49	7,17
1067,907	-10,83
1068,324	4,17
1068,741	12,17
1069,157	9,17
1069,574	7,17
1069,991	9,17
1070,408	6,17
1070,825	-6,83
1071,242	10,17
1071,658	11,17
1072,075	0,17
1072,492	-4,83
1072,908	-4,83
1073,325	0,17
1073,742	6,17
1074,158	-6,83
1074,575	-0,83
1074,991	9,17
1075,408	-6,83
1075,824	-9,83
1076,24	-0,83
1076,657	8,17
1077,073	-11,83
1077,489	-0,83
1077,906	6,17
1078,322	5,17
1078,738	14,17
1079,154	-0,83
1079,571	1,17
1079,987	0,17
1080,403	17,17
1080,819	-1,83
1081,235	8,17
1081,651	-7,83
1082,067	11,17
1082,483	5,17
1082,899	0,17
1083,315	8,17
1083,73	14,17
1084,146	-3,83
1084,562	6,17
1084,978	-2,83
1085,394	-0,83
1085,809	5,17
1086,225	4,17
1086,641	-1,83
1087,056	3,17
1087,472	15,17
1087,887	3,17
1088,303	7,17
1088,718	1,17
1089,134	10,17
1089,549	8,17
1089,965	7,17
1090,38	11,17
1090,795	-3,83
1091,21	-2,83
1091,626	16,17
1092,041	4,17
1092,456	12,17
1092,871	0,17
1093,287	12,17
1093,702	5,17
1094,117	-11,83
1094,532	4,17
1094,947	4,17
1095,362	9,17
1095,777	16,17
1096,192	-5,83
1096,607	0,17
1097,021	14,17
1097,436	5,17
1097,851	-6,83
1098,266	8,17
1098,681	-1,83
1099,095	9,17
1099,51	5,17
1099,925	-7,83
1100,339	1,17
1100,754	-2,83
1101,168	8,17
1101,583	2,17
1101,998	9,17
1102,412	-3,83
1102,826	13,17
1103,241	-1,83
1103,655	0,17
1104,07	8,17
1104,484	-3,83
1104,898	3,17
1105,312	1,17
1105,727	4,17
1106,141	7,17
1106,555	1,17
1106,969	0,17
1107,383	-3,83
1107,797	9,17
1108,211	-7,83
1108,625	13,17
1109,039	1,17
1109,453	-4,83
1109,867	-3,83
1110,281	5,17
1110,695	9,17
1111,109	-6,83
1111,523	-0,83
1111,936	-3,83
1112,35	7,17
1112,764	-4,83
1113,177	12,17
1113,591	2,17
1114,005	-2,83
1114,418	0,17
1114,832	-2,83
1115,245	0,17
1115,659	2,17
